# Incident [V], Transmitted [V], time [s]
0.0,0.0,0.0
6.4e-05,4.8e-05,5e-07
4.8000000000000015e-05,3.199999999999999e-05,1e-06
8e-05,6.399999999999998e-05,1.5e-06
1.5999999999999996e-05,1.600000000000001e-05,2e-06
1.5999999999999996e-05,3.199999999999999e-05,2.5e-06
0.0,1.600000000000001e-05,3e-06
3.2000000000000005e-05,6.399999999999998e-05,3.5e-06
6.4e-05,7.999999999999999e-05,4e-06
3.2000000000000005e-05,6.399999999999998e-05,4.5e-06
3.2000000000000005e-05,4.8e-05,5e-06
1.5999999999999996e-05,0.0,5.5e-06
-9.6e-05,-0.000128,6e-06
6.4e-05,4.8e-05,6.5e-06
0.000112,0.000128,7e-06
4.8000000000000015e-05,3.199999999999999e-05,7.5e-06
-6.4e-05,-0.00011199999999999998,8e-06
-3.199999999999999e-05,-8.000000000000002e-05,8.5e-06
3.2000000000000005e-05,0.0,9e-06
4.8000000000000015e-05,3.199999999999999e-05,9.5e-06
3.2000000000000005e-05,1.600000000000001e-05,1e-05
-6.4e-05,-0.000128,1.05e-05
-4.8e-05,-0.00011199999999999998,1.1e-05
0.0,-4.8e-05,1.15e-05
1.5999999999999996e-05,1.600000000000001e-05,1.2e-05
9.599999999999999e-05,0.00014399999999999998,1.25e-05
-3.199999999999999e-05,1.600000000000001e-05,1.3e-05
-3.199999999999999e-05,0.0,1.35e-05
0.0,0.0,1.4e-05
1.5999999999999996e-05,1.600000000000001e-05,1.45e-05
1.5999999999999996e-05,1.600000000000001e-05,1.5e-05
0.0,0.0,1.55e-05
1.5999999999999996e-05,1.600000000000001e-05,1.6e-05
4.8000000000000015e-05,3.199999999999999e-05,1.65e-05
3.2000000000000005e-05,3.199999999999999e-05,1.7e-05
1.5999999999999996e-05,1.600000000000001e-05,1.75e-05
0.0,0.0,1.8e-05
0.0,-1.600000000000001e-05,1.85e-05
4.8000000000000015e-05,4.8e-05,1.9e-05
0.0,-3.199999999999999e-05,1.95e-05
-7.999999999999999e-05,-0.00011199999999999998,2e-05
3.2000000000000005e-05,1.600000000000001e-05,2.05e-05
6.4e-05,7.999999999999999e-05,2.1e-05
3.2000000000000005e-05,3.199999999999999e-05,2.15e-05
-6.4e-05,-8.000000000000002e-05,2.2e-05
-6.4e-05,-8.000000000000002e-05,2.25e-05
3.2000000000000005e-05,4.8e-05,2.3e-05
4.8000000000000015e-05,6.399999999999998e-05,2.35e-05
3.2000000000000005e-05,3.199999999999999e-05,2.4e-05
-4.8e-05,-9.600000000000003e-05,2.45e-05
-3.199999999999999e-05,-9.600000000000003e-05,2.5e-05
-1.5999999999999996e-05,-6.400000000000001e-05,2.55e-05
1.5999999999999996e-05,1.600000000000001e-05,2.6e-05
0.00012800000000000002,0.000176,2.65e-05
-1.5999999999999996e-05,1.600000000000001e-05,2.7e-05
-1.5999999999999996e-05,-3.199999999999999e-05,2.75e-05
0.0,-1.600000000000001e-05,2.8e-05
3.2000000000000005e-05,1.600000000000001e-05,2.85e-05
0.0,-3.199999999999999e-05,2.9e-05
-1.5999999999999996e-05,-3.199999999999999e-05,2.95e-05
1.5999999999999996e-05,0.0,3e-05
4.8000000000000015e-05,3.199999999999999e-05,3.05e-05
3.2000000000000005e-05,1.600000000000001e-05,3.1e-05
3.2000000000000005e-05,1.600000000000001e-05,3.15e-05
-1.5999999999999996e-05,-3.199999999999999e-05,3.2e-05
-1.5999999999999996e-05,-4.8e-05,3.25e-05
4.8000000000000015e-05,3.199999999999999e-05,3.3e-05
1.5999999999999996e-05,-3.199999999999999e-05,3.35e-05
-3.199999999999999e-05,-8.000000000000002e-05,3.4e-05
4.8000000000000015e-05,1.600000000000001e-05,3.45e-05
3.2000000000000005e-05,3.199999999999999e-05,3.5e-05
-1.5999999999999996e-05,-1.600000000000001e-05,3.55e-05
-6.4e-05,-9.600000000000003e-05,3.6e-05
-1.5999999999999996e-05,-4.8e-05,3.65e-05
6.4e-05,4.8e-05,3.7e-05
4.8000000000000015e-05,6.399999999999998e-05,3.75e-05
1.5999999999999996e-05,0.0,3.8e-05
-9.6e-05,-0.000144,3.85e-05
-1.5999999999999996e-05,-8.000000000000002e-05,3.9e-05
3.2000000000000005e-05,-1.600000000000001e-05,3.95e-05
6.4e-05,6.399999999999998e-05,4e-05
8e-05,0.000128,4.05e-05
-3.199999999999999e-05,0.0,4.1e-05
-4.8e-05,-4.8e-05,4.15e-05
1.5999999999999996e-05,1.600000000000001e-05,4.2e-05
1.5999999999999996e-05,3.199999999999999e-05,4.25e-05
0.0,0.0,4.3e-05
0.0,-1.600000000000001e-05,4.35e-05
3.2000000000000005e-05,3.199999999999999e-05,4.4e-05
4.8000000000000015e-05,3.199999999999999e-05,4.45e-05
6.4e-05,4.8e-05,4.5e-05
3.2000000000000005e-05,1.600000000000001e-05,4.55e-05
-1.5999999999999996e-05,-1.600000000000001e-05,4.6e-05
1.5999999999999996e-05,1.600000000000001e-05,4.65e-05
8e-05,9.6e-05,4.7e-05
6.4e-05,4.8e-05,4.75e-05
-9.6e-05,-0.000128,4.8e-05
8e-05,7.999999999999999e-05,4.85e-05
0.000112,0.000128,4.9e-05
-1.5999999999999996e-05,-3.199999999999999e-05,4.95e-05
-4.8e-05,-8.000000000000002e-05,5e-05
-1.5999999999999996e-05,-4.8e-05,5.05e-05
8e-05,7.999999999999999e-05,5.1e-05
6.4e-05,7.999999999999999e-05,5.15e-05
0.0,0.0,5.2e-05
-4.8e-05,-9.600000000000003e-05,5.25e-05
-3.199999999999999e-05,-6.400000000000001e-05,5.3e-05
0.0,-1.600000000000001e-05,5.35e-05
8e-05,0.000112,5.4e-05
4.8000000000000015e-05,9.6e-05,5.45e-05
-3.199999999999999e-05,0.0,5.5e-05
-3.199999999999999e-05,-3.199999999999999e-05,5.55e-05
0.0,0.0,5.6e-05
-1.5999999999999996e-05,-1.600000000000001e-05,5.65e-05
1.5999999999999996e-05,1.600000000000001e-05,5.7e-05
1.5999999999999996e-05,1.600000000000001e-05,5.75e-05
3.2000000000000005e-05,3.199999999999999e-05,5.8e-05
3.2000000000000005e-05,3.199999999999999e-05,5.85e-05
-1.5999999999999996e-05,-1.600000000000001e-05,5.9e-05
4.8000000000000015e-05,3.199999999999999e-05,5.95e-05
3.2000000000000005e-05,1.600000000000001e-05,6e-05
1.5999999999999996e-05,1.600000000000001e-05,6.05e-05
6.4e-05,7.999999999999999e-05,6.1e-05
-6.4e-05,-8.000000000000002e-05,6.15e-05
-3.199999999999999e-05,-4.8e-05,6.2e-05
6.4e-05,9.6e-05,6.25e-05
6.4e-05,9.6e-05,6.3e-05
1.5999999999999996e-05,3.199999999999999e-05,6.35e-05
-4.8e-05,-6.400000000000001e-05,6.4e-05
-1.5999999999999996e-05,-3.199999999999999e-05,6.45e-05
6.4e-05,6.399999999999998e-05,6.5e-05
4.8000000000000015e-05,6.399999999999998e-05,6.55e-05
6.4e-05,4.8e-05,6.6e-05
-3.199999999999999e-05,-6.400000000000001e-05,6.65e-05
1.5999999999999996e-05,-3.199999999999999e-05,6.7e-05
-4.8e-05,-0.00011199999999999998,6.75e-05
8e-05,9.6e-05,6.8e-05
6.4e-05,9.6e-05,6.85e-05
-1.5999999999999996e-05,0.0,6.9e-05
3.2000000000000005e-05,1.600000000000001e-05,6.95e-05
1.5999999999999996e-05,-1.600000000000001e-05,7e-05
-6.4e-05,-0.00011199999999999998,7.05e-05
0.0,-3.199999999999999e-05,7.1e-05
6.4e-05,1.600000000000001e-05,7.15e-05
3.2000000000000005e-05,0.0,7.2e-05
1.5999999999999996e-05,-3.199999999999999e-05,7.25e-05
1.5999999999999996e-05,-1.600000000000001e-05,7.3e-05
0.0,-4.8e-05,7.35e-05
-1.5999999999999996e-05,-4.8e-05,7.4e-05
3.2000000000000005e-05,-1.600000000000001e-05,7.45e-05
6.4e-05,3.199999999999999e-05,7.5e-05
-3.199999999999999e-05,-0.00011199999999999998,7.55e-05
-1.5999999999999996e-05,-8.000000000000002e-05,7.6e-05
6.4e-05,4.8e-05,7.65e-05
3.2000000000000005e-05,1.600000000000001e-05,7.7e-05
0.0,-4.8e-05,7.75e-05
-4.8e-05,-0.000128,7.8e-05
0.0,-6.400000000000001e-05,7.85e-05
6.4e-05,1.600000000000001e-05,7.9e-05
3.2000000000000005e-05,-1.600000000000001e-05,7.95e-05
3.2000000000000005e-05,-6.400000000000001e-05,8e-05
-4.8e-05,-0.00017600000000000002,8.05e-05
1.5999999999999996e-05,-0.000128,8.1e-05
-4.8e-05,-0.00016,8.15e-05
0.00015999999999999999,0.000112,8.2e-05
6.4e-05,6.399999999999998e-05,8.25e-05
-3.199999999999999e-05,-4.8e-05,8.3e-05
-1.5999999999999996e-05,-8.000000000000002e-05,8.35e-05
-1.5999999999999996e-05,-8.000000000000002e-05,8.4e-05
0.0,-6.400000000000001e-05,8.45e-05
1.5999999999999996e-05,-3.199999999999999e-05,8.5e-05
4.8000000000000015e-05,1.600000000000001e-05,8.55e-05
4.8000000000000015e-05,1.600000000000001e-05,8.6e-05
4.8000000000000015e-05,1.600000000000001e-05,8.65e-05
1.5999999999999996e-05,0.0,8.7e-05
0.0,-1.600000000000001e-05,8.75e-05
1.5999999999999996e-05,1.600000000000001e-05,8.8e-05
4.8000000000000015e-05,7.999999999999999e-05,8.85e-05
0.000112,0.00015999999999999999,8.9e-05
-7.999999999999999e-05,-1.600000000000001e-05,8.95e-05
-1.5999999999999996e-05,0.000128,9e-05
9.599999999999999e-05,0.000352,9.05e-05
0.0,0.000368,9.1e-05
-7.999999999999999e-05,0.000432,9.15e-05
-0.000112,0.000592,9.2e-05
1.5999999999999996e-05,0.000928,9.25e-05
3.2000000000000005e-05,0.001216,9.3e-05
-6.4e-05,0.001376,9.35e-05
-0.00015999999999999999,0.001536,9.4e-05
-0.00023999999999999998,0.001696,9.45e-05
-0.000128,0.001952,9.5e-05
-0.000224,0.001968,9.55e-05
-7.999999999999999e-05,0.00216,9.6e-05
-0.000192,0.001888,9.65e-05
-0.000304,0.001424,9.7e-05
-0.000304,0.000976,9.75e-05
-0.000224,0.00039999999999999996,9.8e-05
-0.00015999999999999999,-0.00031999999999999997,9.85e-05
-0.000144,-0.001248,9.9e-05
-0.00015999999999999999,-0.0024000000000000002,9.95e-05
-0.000192,-0.0037120000000000005,0.0001
-0.00015999999999999999,-0.0051199999999999996,0.0001005
-7.999999999999999e-05,-0.0065439999999999995,0.000101
0.0,-0.008128,0.0001015
3.2000000000000005e-05,-0.00984,0.000102
0.00012800000000000002,-0.011488,0.0001025
0.00022399999999999997,-0.0132,0.000103
0.00012800000000000002,-0.01512,0.0001035
-4.8e-05,-0.017136000000000002,0.000104
-0.000144,-0.018928,0.0001045
-0.000112,-0.020496,0.000105
4.8000000000000015e-05,-0.021776,0.0001055
9.599999999999999e-05,-0.023072000000000002,0.000106
8e-05,-0.024192,0.0001065
0.000112,-0.025008000000000002,0.000107
0.000112,-0.025728,0.0001075
0.000112,-0.026224,0.000108
1.5999999999999996e-05,-0.02664,0.0001085
0.00022399999999999997,-0.026528000000000003,0.000109
0.00020800000000000001,-0.026464,0.0001095
0.000352,-0.026032000000000003,0.00011
0.000288,-0.025728,0.0001105
9.599999999999999e-05,-0.025472,0.000111
9.599999999999999e-05,-0.024912,0.0001115
0.00012800000000000002,-0.024304000000000003,0.000112
0.00014399999999999998,-0.023648000000000002,0.0001125
6.4e-05,-0.022944000000000003,0.000113
0.0,-0.022176,0.0001135
-4.8e-05,-0.021328000000000003,0.000114
-3.199999999999999e-05,-0.020416,0.0001145
-1.5999999999999996e-05,-0.019632,0.000115
0.0,-0.019008,0.0001155
3.2000000000000005e-05,-0.018576000000000002,0.000116
6.4e-05,-0.018368000000000002,0.0001165
0.000112,-0.018352,0.000117
4.8000000000000015e-05,-0.018624,0.0001175
4.8000000000000015e-05,-0.01896,0.000118
0.00022399999999999997,-0.019168,0.0001185
0.00020800000000000001,-0.019648000000000002,0.000119
0.00012800000000000002,-0.02024,0.0001195
0.0,-0.020944,0.00012
1.5999999999999996e-05,-0.021488,0.0001205
6.4e-05,-0.021808,0.000121
8e-05,-0.022288000000000002,0.0001215
0.0,-0.0228,0.000122
-0.000112,-0.023200000000000002,0.0001225
-7.999999999999999e-05,-0.023376,0.000123
0.0,-0.023328,0.0001235
0.0,-0.023136,0.000124
0.00012800000000000002,-0.022704000000000002,0.0001245
0.0,-0.022416000000000002,0.000125
0.0,-0.021840000000000002,0.0001255
6.4e-05,-0.021136000000000002,0.000126
0.000112,-0.020352000000000002,0.0001265
0.000112,-0.019648000000000002,0.000127
9.599999999999999e-05,-0.019072000000000002,0.0001275
9.599999999999999e-05,-0.01856,0.000128
9.599999999999999e-05,-0.018288000000000002,0.0001285
1.5999999999999996e-05,-0.018240000000000003,0.000129
-1.5999999999999996e-05,-0.018272,0.0001295
3.2000000000000005e-05,-0.018432,0.00013
1.5999999999999996e-05,-0.018768,0.0001305
1.5999999999999996e-05,-0.019136,0.000131
-3.199999999999999e-05,-0.019648000000000002,0.0001315
-0.000144,-0.020224000000000002,0.000132
-9.6e-05,-0.020688,0.0001325
-1.5999999999999996e-05,-0.021008000000000002,0.000133
-1.5999999999999996e-05,-0.021392,0.0001335
-6.4e-05,-0.021856,0.000134
-6.4e-05,-0.022128000000000002,0.0001345
6.4e-05,-0.022128000000000002,0.000135
8e-05,-0.022096,0.0001355
6.4e-05,-0.021968,0.000136
8e-05,-0.021664000000000003,0.0001365
4.8000000000000015e-05,-0.021232,0.000137
0.000176,-0.020608,0.0001375
0.00012800000000000002,-0.020176000000000003,0.000138
0.00022399999999999997,-0.019584,0.0001385
4.8000000000000015e-05,-0.019424,0.000139
8e-05,-0.019232000000000003,0.0001395
0.0,-0.019168,0.00014
6.4e-05,-0.019008,0.0001405
-1.5999999999999996e-05,-0.019168,0.000141
1.5999999999999996e-05,-0.019472000000000003,0.0001415
-1.5999999999999996e-05,-0.019936000000000002,0.000142
-4.8e-05,-0.02048,0.0001425
-1.5999999999999996e-05,-0.021232,0.000143
-6.4e-05,-0.021872000000000003,0.0001435
-1.5999999999999996e-05,-0.022112000000000003,0.000144
-1.5999999999999996e-05,-0.022224,0.0001445
3.2000000000000005e-05,-0.022192,0.000145
3.2000000000000005e-05,-0.022096,0.0001455
-1.5999999999999996e-05,-0.022048,0.000146
8e-05,-0.021936,0.0001465
9.599999999999999e-05,-0.021824000000000003,0.000147
8e-05,-0.021456000000000003,0.0001475
4.8000000000000015e-05,-0.021072,0.000148
3.2000000000000005e-05,-0.020528,0.0001485
0.00014399999999999998,-0.019792,0.000149
0.00012800000000000002,-0.019360000000000002,0.0001495
4.8000000000000015e-05,-0.019360000000000002,0.00015
0.0,-0.019808000000000003,0.0001505
1.5999999999999996e-05,-0.02024,0.000151
8e-05,-0.020608,0.0001515
1.5999999999999996e-05,-0.020992,0.000152
0.000176,-0.020928000000000002,0.0001525
3.2000000000000005e-05,-0.021184,0.000153
0.0,-0.021568,0.0001535
-1.5999999999999996e-05,-0.021952000000000003,0.000154
1.5999999999999996e-05,-0.022224,0.0001545
4.8000000000000015e-05,-0.022496000000000002,0.000155
0.0,-0.02264,0.0001555
0.0,-0.022272,0.000156
-1.5999999999999996e-05,-0.021536000000000003,0.0001565
-1.5999999999999996e-05,-0.020704,0.000157
0.0,-0.020064000000000002,0.0001575
0.0,-0.019792,0.000158
0.0,-0.01984,0.0001585
3.2000000000000005e-05,-0.019856000000000002,0.000159
6.4e-05,-0.019888000000000003,0.0001595
3.2000000000000005e-05,-0.020144000000000002,0.00016
-3.199999999999999e-05,-0.020448,0.0001605
0.00023999999999999998,-0.02032,0.000161
0.000112,-0.020624,0.0001615
4.8000000000000015e-05,-0.021072,0.000162
3.2000000000000005e-05,-0.02168,0.0001625
0.00012800000000000002,-0.022112000000000003,0.000163
0.000176,-0.022368000000000002,0.0001635
8e-05,-0.022352,0.000164
6.4e-05,-0.022128000000000002,0.0001645
-7.999999999999999e-05,-0.022048,0.000165
1.5999999999999996e-05,-0.0216,0.0001655
-4.8e-05,-0.021104,0.000166
8e-05,-0.020256000000000003,0.0001665
0.0,-0.019888000000000003,0.000167
-0.000112,-0.019936000000000002,0.0001675
-0.000144,-0.020128,0.000168
-4.8e-05,-0.020176000000000003,0.0001685
3.2000000000000005e-05,-0.02016,0.000169
3.2000000000000005e-05,-0.020336,0.0001695
-1.5999999999999996e-05,-0.020752000000000003,0.00017
3.2000000000000005e-05,-0.020960000000000003,0.0001705
6.4e-05,-0.021088000000000003,0.000171
9.599999999999999e-05,-0.021312,0.0001715
0.000112,-0.021696,0.000172
0.000112,-0.022240000000000003,0.0001725
6.4e-05,-0.022592,0.000173
8e-05,-0.022448000000000003,0.0001735
3.2000000000000005e-05,-0.022016,0.000174
-4.8e-05,-0.021488,0.0001745
8e-05,-0.020832,0.000175
8e-05,-0.0204,0.0001755
1.5999999999999996e-05,-0.020352000000000002,0.000176
-6.4e-05,-0.020544,0.0001765
-6.4e-05,-0.020592000000000003,0.000177
0.0,-0.020560000000000002,0.0001775
4.8000000000000015e-05,-0.020560000000000002,0.000178
4.8000000000000015e-05,-0.020736,0.0001785
-7.999999999999999e-05,-0.021008000000000002,0.000179
-1.5999999999999996e-05,-0.021104,0.0001795
4.8000000000000015e-05,-0.021296000000000002,0.00018
4.8000000000000015e-05,-0.021568,0.0001805
0.000176,-0.021904,0.000181
4.8000000000000015e-05,-0.022224,0.0001815
1.5999999999999996e-05,-0.022144,0.000182
3.2000000000000005e-05,-0.021824000000000003,0.0001825
3.2000000000000005e-05,-0.02152,0.000183
3.2000000000000005e-05,-0.021184,0.0001835
3.2000000000000005e-05,-0.020656,0.000184
0.0,-0.020112,0.0001845
0.0,-0.019616,0.000185
-1.5999999999999996e-05,-0.019408,0.0001855
-4.8e-05,-0.019456,0.000186
-4.8e-05,-0.019600000000000003,0.0001865
-1.5999999999999996e-05,-0.019680000000000003,0.000187
0.0,-0.019728000000000002,0.0001875
-1.5999999999999996e-05,-0.019696,0.000188
-9.6e-05,-0.019744,0.0001885
-9.6e-05,-0.019824,0.000189
0.0,-0.019936000000000002,0.0001895
-1.5999999999999996e-05,-0.02024,0.00019
-6.4e-05,-0.020432000000000002,0.0001905
-0.000128,-0.020560000000000002,0.000191
-6.4e-05,-0.020352000000000002,0.0001915
3.2000000000000005e-05,-0.02008,0.000192
4.8000000000000015e-05,-0.01984,0.0001925
3.2000000000000005e-05,-0.019584,0.000193
-6.4e-05,-0.019440000000000002,0.0001935
1.5999999999999996e-05,-0.019136,0.000194
-3.199999999999999e-05,-0.018864000000000002,0.0001945
0.000192,-0.018288000000000002,0.000195
0.00014399999999999998,-0.018160000000000003,0.0001955
6.4e-05,-0.018320000000000003,0.000196
6.4e-05,-0.018544,0.0001965
8e-05,-0.018592,0.000197
0.000112,-0.018240000000000003,0.0001975
0.000112,-0.01744,0.000198
0.000112,-0.016528,0.0001985
0.000112,-0.015616,0.000199
6.4e-05,-0.015008,0.0001995
0.0,-0.014688,0.0002
0.0,-0.014176,0.0002005
1.5999999999999996e-05,-0.013296,0.000201
4.8000000000000015e-05,-0.012112,0.0002015
1.5999999999999996e-05,-0.010944,0.000202
-4.8e-05,-0.01,0.0002025
-9.6e-05,-0.009311999999999999,0.000203
1.5999999999999996e-05,-0.00864,0.0002035
8e-05,-0.00808,0.000204
9.599999999999999e-05,-0.007503999999999999,0.0002045
-1.5999999999999996e-05,-0.007039999999999999,0.000205
-1.5999999999999996e-05,-0.006496,0.0002055
0.00012800000000000002,-0.00584,0.000206
0.000112,-0.005327999999999999,0.0002065
8e-05,-0.004784,0.000207
0.0,-0.004144,0.0002075
1.5999999999999996e-05,-0.0033120000000000003,0.000208
6.4e-05,-0.002464,0.0002085
-1.5999999999999996e-05,-0.001744,0.000209
0.00012800000000000002,-0.000864,0.0002095
-1.5999999999999996e-05,-0.000384,0.00021
-6.4e-05,3.199999999999999e-05,0.0002105
-3.199999999999999e-05,0.000352,0.000211
0.0,0.00056,0.0002115
0.0,0.000704,0.000212
1.5999999999999996e-05,0.000736,0.0002125
-1.5999999999999996e-05,0.0006399999999999999,0.000213
-3.199999999999999e-05,0.000576,0.0002135
1.5999999999999996e-05,0.000512,0.000214
1.5999999999999996e-05,0.000176,0.0002145
3.2000000000000005e-05,-0.00031999999999999997,0.000215
4.8000000000000015e-05,-0.0008799999999999999,0.0002155
3.2000000000000005e-05,-0.001424,0.000216
6.4e-05,-0.001488,0.0002165
4.8000000000000015e-05,-0.001456,0.000217
-1.5999999999999996e-05,-0.001472,0.0002175
6.4e-05,-0.0012799999999999999,0.000218
6.4e-05,-0.001232,0.0002185
4.8000000000000015e-05,-0.001504,0.000219
-3.199999999999999e-05,-0.002016,0.0002195
-1.5999999999999996e-05,-0.002304,0.00022
8e-05,-0.0023680000000000003,0.0002205
6.4e-05,-0.002448,0.000221
4.8000000000000015e-05,-0.0024960000000000004,0.0002215
-6.4e-05,-0.0026720000000000003,0.000222
-1.5999999999999996e-05,-0.002608,0.0002225
1.5999999999999996e-05,-0.002464,0.000223
3.2000000000000005e-05,-0.0023840000000000003,0.0002235
8e-05,-0.002304,0.000224
-6.4e-05,-0.0023680000000000003,0.0002245
-1.5999999999999996e-05,-0.0020800000000000003,0.000225
1.5999999999999996e-05,-0.001696,0.0002255
0.0,-0.001296,0.000226
-7.999999999999999e-05,-0.000992,0.0002265
-7.999999999999999e-05,-0.0007199999999999999,0.000227
0.0,-0.00039999999999999996,0.0002275
4.8000000000000015e-05,-0.000128,0.000228
6.4e-05,0.0,0.0002285
4.8000000000000015e-05,-3.199999999999999e-05,0.000229
4.8000000000000015e-05,-0.000272,0.0002295
4.8000000000000015e-05,-0.000624,0.00023
6.4e-05,-0.001008,0.0002305
9.599999999999999e-05,-0.0012799999999999999,0.000231
4.8000000000000015e-05,-0.001504,0.0002315
3.2000000000000005e-05,-0.001504,0.000232
8e-05,-0.001328,0.0002325
1.5999999999999996e-05,-0.0012799999999999999,0.000233
-1.5999999999999996e-05,-0.001232,0.0002335
-3.199999999999999e-05,-0.0012799999999999999,0.000234
0.0,-0.001232,0.0002345
-1.5999999999999996e-05,-0.001232,0.000235
-1.5999999999999996e-05,-0.001296,0.0002355
-1.5999999999999996e-05,-0.0013599999999999999,0.000236
-6.4e-05,-0.0014399999999999999,0.0002365
0.0,-0.0012,0.000237
-4.8e-05,-0.001056,0.0002375
9.599999999999999e-05,-0.0007199999999999999,0.000238
4.8000000000000015e-05,-0.0008320000000000001,0.0002385
-1.5999999999999996e-05,-0.00112,0.000239
0.0,-0.001376,0.0002395
8e-05,-0.001472,0.00024
8e-05,-0.001536,0.0002405
4.8000000000000015e-05,-0.001424,0.000241
8e-05,-0.001152,0.0002415
6.4e-05,-0.0009759999999999999,0.000242
6.4e-05,-0.0007999999999999999,0.0002425
4.8000000000000015e-05,-0.000672,0.000243
4.8000000000000015e-05,-0.000592,0.0002435
6.4e-05,-0.000768,0.000244
4.8000000000000015e-05,-0.001072,0.0002445
8e-05,-0.001392,0.000245
8e-05,-0.001712,0.0002455
-3.199999999999999e-05,-0.002096,0.000246
4.8000000000000015e-05,-0.0020640000000000003,0.0002465
6.4e-05,-0.001952,0.000247
4.8000000000000015e-05,-0.001808,0.0002475
-1.5999999999999996e-05,-0.0018720000000000002,0.000248
-4.8e-05,-0.001984,0.0002485
3.2000000000000005e-05,-0.001968,0.000249
8e-05,-0.001936,0.0002495
3.2000000000000005e-05,-0.0018559999999999998,0.00025
-4.8e-05,-0.001712,0.0002505
-6.4e-05,-0.001472,0.000251
8e-05,-0.001152,0.0002515
1.5999999999999996e-05,-0.001024,0.000252
0.000192,-0.0007199999999999999,0.0002525
6.4e-05,-0.0008799999999999999,0.000253
3.2000000000000005e-05,-0.0008959999999999999,0.0002535
1.5999999999999996e-05,-0.000928,0.000254
4.8000000000000015e-05,-0.001056,0.0002545
4.8000000000000015e-05,-0.001168,0.000255
8e-05,-0.001152,0.0002555
3.2000000000000005e-05,-0.0012,0.000256
-1.5999999999999996e-05,-0.001264,0.0002565
-1.5999999999999996e-05,-0.001344,0.000257
3.2000000000000005e-05,-0.001168,0.0002575
3.2000000000000005e-05,-0.000944,0.000258
1.5999999999999996e-05,-0.000768,0.0002585
-1.5999999999999996e-05,-0.000848,0.000259
0.0,-0.000992,0.0002595
-3.199999999999999e-05,-0.001152,0.00026
-6.4e-05,-0.001216,0.0002605
6.4e-05,-0.001104,0.000261
8e-05,-0.001088,0.0002615
1.5999999999999996e-05,-0.001088,0.000262
-7.999999999999999e-05,-0.0009759999999999999,0.0002625
0.0,-0.000592,0.000263
9.599999999999999e-05,-0.00025600000000000004,0.0002635
1.5999999999999996e-05,-0.000128,0.000264
-1.5999999999999996e-05,-0.000128,0.0002645
-0.000128,-0.00025600000000000004,0.000265
-6.4e-05,-0.000128,0.0002655
-1.5999999999999996e-05,-0.00016,0.000266
1.5999999999999996e-05,-0.00011199999999999998,0.0002665
9.599999999999999e-05,0.0,0.000267
-6.4e-05,-0.000272,0.0002675
-9.6e-05,-0.00039999999999999996,0.000268
-6.4e-05,-0.000384,0.0002685
1.5999999999999996e-05,-0.000304,0.000269
3.2000000000000005e-05,-0.00031999999999999997,0.0002695
0.0,-0.00047999999999999996,0.00027
-1.5999999999999996e-05,-0.000784,0.0002705
0.0,-0.001184,0.000271
-1.5999999999999996e-05,-0.001408,0.0002715
-1.5999999999999996e-05,-0.001312,0.000272
3.2000000000000005e-05,-0.0009599999999999999,0.0002725
1.5999999999999996e-05,-0.000624,0.000273
-1.5999999999999996e-05,-0.00028799999999999995,0.0002735
0.0,-3.199999999999999e-05,0.000274
-7.999999999999999e-05,-0.00011199999999999998,0.0002745
-6.4e-05,-0.00016,0.000275
6.4e-05,-8.000000000000002e-05,0.0002755
4.8000000000000015e-05,-0.00024,0.000276
-3.199999999999999e-05,-0.00041600000000000003,0.0002765
-0.000112,-0.0005279999999999999,0.000277
-1.5999999999999996e-05,-0.00036799999999999995,0.0002775
6.4e-05,-0.00028799999999999995,0.000278
0.0,-0.00033599999999999993,0.0002785
-1.5999999999999996e-05,-0.00041600000000000003,0.000279
-0.000112,-0.000848,0.0002795
1.5999999999999996e-05,-0.00104,0.00028
-3.199999999999999e-05,-0.001376,0.0002805
9.599999999999999e-05,-0.001392,0.000281
6.4e-05,-0.001328,0.0002815
-4.8e-05,-0.001136,0.000282
-7.999999999999999e-05,-0.000752,0.0002825
-3.199999999999999e-05,-0.000352,0.000283
-1.5999999999999996e-05,-0.000144,0.0002835
-1.5999999999999996e-05,-0.000144,0.000284
-3.199999999999999e-05,-0.00036799999999999995,0.0002845
-1.5999999999999996e-05,-0.000592,0.000285
-3.199999999999999e-05,-0.000704,0.0002855
-3.199999999999999e-05,-0.0007999999999999999,0.000286
0.0,-0.0007199999999999999,0.0002865
0.0,-0.000496,0.000287
-1.5999999999999996e-05,-0.000432,0.0002875
0.0,-0.0005279999999999999,0.000288
0.0,-0.000864,0.0002885
-1.5999999999999996e-05,-0.0012,0.000289
8e-05,-0.0012799999999999999,0.0002895
0.00012800000000000002,-0.001232,0.00029
9.599999999999999e-05,-0.001184,0.0002905
-3.199999999999999e-05,-0.001136,0.000291
-7.999999999999999e-05,-0.000992,0.0002915
1.5999999999999996e-05,-0.000592,0.000292
8e-05,-0.00033599999999999993,0.0002925
4.8000000000000015e-05,-0.000352,0.000293
-1.5999999999999996e-05,-0.000496,0.0002935
-7.999999999999999e-05,-0.0006079999999999999,0.000294
0.0,-0.00056,0.0002945
-7.999999999999999e-05,-0.0006079999999999999,0.000295
0.00012800000000000002,-0.00041600000000000003,0.0002955
-1.5999999999999996e-05,-0.000656,0.000296
-3.199999999999999e-05,-0.0008320000000000001,0.0002965
-4.8e-05,-0.001072,0.000297
1.5999999999999996e-05,-0.001248,0.0002975
1.5999999999999996e-05,-0.001488,0.000298
8e-05,-0.00152,0.0002985
4.8000000000000015e-05,-0.0014399999999999999,0.000299
4.8000000000000015e-05,-0.0012,0.0002995
4.8000000000000015e-05,-0.0009759999999999999,0.0003
1.5999999999999996e-05,-0.0008799999999999999,0.0003005
-1.5999999999999996e-05,-0.000848,0.000301
1.5999999999999996e-05,-0.0007999999999999999,0.0003015
4.8000000000000015e-05,-0.0007199999999999999,0.000302
4.8000000000000015e-05,-0.000672,0.0003025
-4.8e-05,-0.000688,0.000303
-1.5999999999999996e-05,-0.000544,0.0003035
8e-05,-0.000304,0.000304
8e-05,-0.000128,0.0003045
1.5999999999999996e-05,-0.00011199999999999998,0.000305
-9.6e-05,-0.00036799999999999995,0.0003055
-3.199999999999999e-05,-0.00047999999999999996,0.000306
6.4e-05,-0.000512,0.0003065
4.8000000000000015e-05,-0.000592,0.000307
6.4e-05,-0.000544,0.0003075
-3.199999999999999e-05,-0.000496,0.000308
1.5999999999999996e-05,-0.00011199999999999998,0.0003085
-4.8e-05,0.000224,0.000309
3.2000000000000005e-05,0.000688,0.0003095
6.4e-05,0.000912,0.00031
-3.199999999999999e-05,0.000784,0.0003105
-4.8e-05,0.000672,0.000311
-3.199999999999999e-05,0.000576,0.0003115
-1.5999999999999996e-05,0.000512,0.000312
-1.5999999999999996e-05,0.000464,0.0003125
0.0,0.000464,0.000313
1.5999999999999996e-05,0.00047999999999999996,0.0003135
3.2000000000000005e-05,0.000576,0.000314
0.0,0.000464,0.0003145
0.0,0.000224,0.000315
-1.5999999999999996e-05,-3.199999999999999e-05,0.0003155
1.5999999999999996e-05,-0.00025600000000000004,0.000316
4.8000000000000015e-05,-0.00039999999999999996,0.0003165
4.8000000000000015e-05,-0.000432,0.000317
-4.8e-05,-0.000512,0.0003175
0.0,-0.000352,0.000318
8e-05,-6.400000000000001e-05,0.0003185
3.2000000000000005e-05,0.000112,0.000319
-3.199999999999999e-05,0.000176,0.0003195
-9.6e-05,7.999999999999999e-05,0.00032
3.2000000000000005e-05,0.000192,0.0003205
4.8000000000000015e-05,0.000176,0.000321
1.5999999999999996e-05,0.0,0.0003215
-1.5999999999999996e-05,-0.000144,0.000322
-4.8e-05,-0.000208,0.0003225
4.8000000000000015e-05,-0.00016,0.000323
-6.4e-05,-0.00031999999999999997,0.0003235
8e-05,-6.400000000000001e-05,0.000324
0.0,-0.00025600000000000004,0.0003245
-4.8e-05,-0.00044799999999999994,0.000325
-1.5999999999999996e-05,-0.000512,0.0003255
0.0,-0.000544,0.000326
0.0,-0.00041600000000000003,0.0003265
-3.199999999999999e-05,-0.00017600000000000002,0.000327
-3.199999999999999e-05,0.00014399999999999998,0.0003275
3.2000000000000005e-05,0.000464,0.000328
0.0,0.000544,0.0003285
-3.199999999999999e-05,0.000576,0.000329
1.5999999999999996e-05,0.00072,0.0003295
-1.5999999999999996e-05,0.000736,0.00033
-1.5999999999999996e-05,0.0006399999999999999,0.0003305
8e-05,0.00056,0.000331
1.5999999999999996e-05,0.000336,0.0003315
-6.4e-05,0.000128,0.000332
6.4e-05,0.00015999999999999999,0.0003325
1.5999999999999996e-05,3.199999999999999e-05,0.000333
-3.199999999999999e-05,-0.00017600000000000002,0.0003335
-6.4e-05,-0.00025600000000000004,0.000334
3.2000000000000005e-05,-6.400000000000001e-05,0.0003345
8e-05,0.00015999999999999999,0.000335
1.5999999999999996e-05,0.000176,0.0003355
-1.5999999999999996e-05,0.000208,0.000336
-0.000128,0.00015999999999999999,0.0003365
-6.4e-05,0.000368,0.000337
-0.000112,0.00041600000000000003,0.0003375
4.8000000000000015e-05,0.000592,0.000338
1.5999999999999996e-05,0.000464,0.0003385
-7.999999999999999e-05,0.000176,0.000339
-7.999999999999999e-05,-9.600000000000003e-05,0.0003395
-1.5999999999999996e-05,-0.000208,0.00034
1.5999999999999996e-05,-0.00024,0.0003405
3.2000000000000005e-05,-0.000208,0.000341
3.2000000000000005e-05,-0.00016,0.0003415
1.5999999999999996e-05,-0.00016,0.000342
-1.5999999999999996e-05,-0.000144,0.0003425
0.0,-1.600000000000001e-05,0.000343
0.0,3.199999999999999e-05,0.0003435
1.5999999999999996e-05,0.000112,0.000344
4.8000000000000015e-05,0.000256,0.0003445
8e-05,0.000384,0.000345
4.8000000000000015e-05,0.000496,0.0003455
-4.8e-05,0.000576,0.000346
4.8000000000000015e-05,0.000688,0.0003465
3.2000000000000005e-05,0.000608,0.000347
0.0,0.00041600000000000003,0.0003475
-7.999999999999999e-05,0.00015999999999999999,0.000348
-6.4e-05,0.0,0.0003485
4.8000000000000015e-05,-3.199999999999999e-05,0.000349
6.4e-05,-4.8e-05,0.0003495
3.2000000000000005e-05,-4.8e-05,0.00035
-7.999999999999999e-05,-4.8e-05,0.0003505
-6.4e-05,0.000176,0.000351
0.0,0.00041600000000000003,0.0003515
1.5999999999999996e-05,0.000448,0.000352
9.599999999999999e-05,0.000464,0.0003525
-6.4e-05,0.00014399999999999998,0.000353
-0.000112,-0.00011199999999999998,0.0003535
-1.5999999999999996e-05,-0.000144,0.000354
4.8000000000000015e-05,-0.00011199999999999998,0.0003545
8e-05,1.600000000000001e-05,0.000355
4.8000000000000015e-05,0.000112,0.0003555
-3.199999999999999e-05,0.00014399999999999998,0.000356
-3.199999999999999e-05,0.000176,0.0003565
0.0,0.000208,0.000357
4.8000000000000015e-05,6.399999999999998e-05,0.0003575
4.8000000000000015e-05,-6.400000000000001e-05,0.000358
3.2000000000000005e-05,-6.400000000000001e-05,0.0003585
0.0,4.8e-05,0.000359
-3.199999999999999e-05,0.000272,0.0003595
-0.000112,0.00047999999999999996,0.00036
0.0,0.00088,0.0003605
3.2000000000000005e-05,0.000992,0.000361
1.5999999999999996e-05,0.0008320000000000001,0.0003615
-9.6e-05,0.000464,0.000362
-0.000144,0.000128,0.0003625
-1.5999999999999996e-05,3.199999999999999e-05,0.000363
4.8000000000000015e-05,0.0,0.0003635
0.0,-4.8e-05,0.000364
-4.8e-05,-8.000000000000002e-05,0.0003645
-7.999999999999999e-05,-6.400000000000001e-05,0.000365
1.5999999999999996e-05,0.000112,0.0003655
-7.999999999999999e-05,0.000112,0.000366
0.00014399999999999998,0.000368,0.0003665
0.0,0.00015999999999999999,0.000367
-6.4e-05,-8.000000000000002e-05,0.0003675
0.0,-0.00019199999999999998,0.000368
3.2000000000000005e-05,-0.000224,0.0003685
3.2000000000000005e-05,-0.00017600000000000002,0.000369
3.2000000000000005e-05,-8.000000000000002e-05,0.0003695
3.2000000000000005e-05,0.0,0.00037
-1.5999999999999996e-05,3.199999999999999e-05,0.0003705
0.0,0.00014399999999999998,0.000371
1.5999999999999996e-05,0.00015999999999999999,0.0003715
3.2000000000000005e-05,0.000112,0.000372
1.5999999999999996e-05,-1.600000000000001e-05,0.0003725
3.2000000000000005e-05,-0.00016,0.000373
4.8000000000000015e-05,-0.00031999999999999997,0.0003735
-4.8e-05,-0.000576,0.000374
-4.8e-05,-0.0006399999999999999,0.0003745
8e-05,-0.00039999999999999996,0.000375
4.8000000000000015e-05,-0.00028799999999999995,0.0003755
4.8000000000000015e-05,-0.000144,0.000376
-4.8e-05,-6.400000000000001e-05,0.0003765
-4.8e-05,0.000128,0.000377
6.4e-05,0.000368,0.0003775
0.0,0.000384,0.000378
0.0,0.00041600000000000003,0.0003785
-7.999999999999999e-05,0.000368,0.000379
0.0,0.000544,0.0003795
-6.4e-05,0.000576,0.00038
4.8000000000000015e-05,0.00072,0.0003805
4.8000000000000015e-05,0.0006399999999999999,0.000381
-7.999999999999999e-05,0.000256,0.0003815
-4.8e-05,4.8e-05,0.000382
1.5999999999999996e-05,-0.000128,0.0003825
3.2000000000000005e-05,-0.00024,0.000383
0.0,-0.000304,0.0003835
0.0,-0.00024,0.000384
0.0,-9.600000000000003e-05,0.0003845
-1.5999999999999996e-05,6.399999999999998e-05,0.000385
-1.5999999999999996e-05,0.00014399999999999998,0.0003855
-1.5999999999999996e-05,0.00014399999999999998,0.000386
1.5999999999999996e-05,9.6e-05,0.0003865
4.8000000000000015e-05,3.199999999999999e-05,0.000387
6.4e-05,-1.600000000000001e-05,0.0003875
3.2000000000000005e-05,-9.600000000000003e-05,0.000388
-7.999999999999999e-05,-0.000208,0.0003885
-1.5999999999999996e-05,-8.000000000000002e-05,0.000389
4.8000000000000015e-05,4.8e-05,0.0003895
6.4e-05,7.999999999999999e-05,0.00039
0.0,3.199999999999999e-05,0.0003905
-1.5999999999999996e-05,-1.600000000000001e-05,0.000391
4.8000000000000015e-05,-3.199999999999999e-05,0.0003915
6.4e-05,-0.000128,0.000392
1.5999999999999996e-05,-0.00017600000000000002,0.0003925
0.0,-0.00016,0.000393
-1.5999999999999996e-05,-0.00011199999999999998,0.0003935
6.4e-05,0.0,0.000394
-6.4e-05,-0.000144,0.0003945
4.8000000000000015e-05,-6.400000000000001e-05,0.000395
-1.5999999999999996e-05,-0.000208,0.0003955
-7.999999999999999e-05,-0.00036799999999999995,0.000396
-3.199999999999999e-05,-0.00028799999999999995,0.0003965
-1.5999999999999996e-05,-0.00016,0.000397
-4.8e-05,0.0,0.0003975
-4.8e-05,0.00024,0.000398
-6.4e-05,0.000496,0.0003985
-7.999999999999999e-05,0.000608,0.000399
-0.000128,0.000464,0.0003995
-0.000112,0.00031999999999999997,0.0004
-9.6e-05,0.000176,0.0004005
-7.999999999999999e-05,1.600000000000001e-05,0.000401
-6.4e-05,-0.000128,0.0004015
-1.5999999999999996e-05,-0.000144,0.000402
-9.6e-05,-0.00019199999999999998,0.0004025
-0.000128,-9.600000000000003e-05,0.000403
-1.5999999999999996e-05,0.000176,0.0004035
0.0,0.000304,0.000404
-6.4e-05,0.000256,0.0004045
-0.000112,0.00015999999999999999,0.000405
-6.4e-05,0.00015999999999999999,0.0004055
-1.5999999999999996e-05,0.00015999999999999999,0.000406
3.2000000000000005e-05,0.000112,0.0004065
3.2000000000000005e-05,6.399999999999998e-05,0.000407
-6.4e-05,1.600000000000001e-05,0.0004075
0.0,0.000224,0.000408
-1.5999999999999996e-05,0.000384,0.0004085
8e-05,0.000688,0.000409
0.00015999999999999999,0.000848,0.0004095
-1.5999999999999996e-05,0.000624,0.00041
1.5999999999999996e-05,0.000528,0.0004105
-3.199999999999999e-05,0.000352,0.000411
4.8000000000000015e-05,0.000352,0.0004115
-4.8e-05,0.00024,0.000412
-0.000112,0.000208,0.0004125
-0.00020800000000000001,0.000176,0.000413
-0.000352,7.999999999999999e-05,0.0004135
-0.000448,9.6e-05,0.000414
-0.000672,0.000128,0.0004145
-0.00088,0.000256,0.000415
-0.0011519999999999998,0.000288,0.0004155
-0.001408,0.000304,0.000416
-0.0016799999999999999,0.000352,0.0004165
-0.002096,0.00031999999999999997,0.000417
-0.0024000000000000002,0.000448,0.0004175
-0.00272,0.000544,0.000418
-0.0032,0.00041600000000000003,0.0004185
-0.0036320000000000002,0.000256,0.000419
-0.00408,4.8e-05,0.0004195
-0.0044,-1.600000000000001e-05,0.00042
-0.004704,-3.199999999999999e-05,0.0004205
-0.005152,-0.00016,0.000421
-0.0055520000000000005,-0.000208,0.0004215
-0.005904,-0.00016,0.000422
-0.006048,0.000112,0.0004225
-0.0063360000000000005,9.6e-05,0.000423
-0.0063360000000000005,0.000256,0.0004235
-0.00656,7.999999999999999e-05,0.000424
-0.006784,-0.00016,0.0004245
-0.006768,-0.000208,0.000425
-0.006736,-0.00017600000000000002,0.0004255
-0.00672,-0.000144,0.000426
-0.006688,-0.000128,0.0004265
-0.0066560000000000005,-1.600000000000001e-05,0.000427
-0.0066240000000000005,0.000128,0.0004275
-0.006512,0.000256,0.000428
-0.006416,0.000288,0.0004285
-0.006432,9.6e-05,0.000429
-0.006416,-6.400000000000001e-05,0.0004295
-0.006384,-0.000128,0.00043
-0.0064,-0.000144,0.0004305
-0.006448,-0.000144,0.000431
-0.006576,-0.00011199999999999998,0.0004315
-0.006608,0.00014399999999999998,0.000432
-0.00664,0.00041600000000000003,0.0004325
-0.006768,0.00047999999999999996,0.000433
-0.006976,0.000304,0.0004335
-0.00704,0.000112,0.000434
-0.007024,4.8e-05,0.0004345
-0.0070880000000000006,-4.8e-05,0.000435
-0.007232,-0.00011199999999999998,0.0004355
-0.007344,-9.600000000000003e-05,0.000436
-0.007392,0.0,0.0004365
-0.007312,0.00024,0.000437
-0.00736,0.000336,0.0004375
-0.007232,0.000528,0.000438
-0.007344,0.00031999999999999997,0.0004385
-0.007328,0.00014399999999999998,0.000439
-0.007248,4.8e-05,0.0004395
-0.0072,-1.600000000000001e-05,0.00044
-0.007184,-4.8e-05,0.0004405
-0.007184,3.199999999999999e-05,0.000441
-0.007216,0.00014399999999999998,0.0004415
-0.007216,0.000256,0.000442
-0.007248,0.000256,0.0004425
-0.00728,0.000256,0.000443
-0.007312,0.00015999999999999999,0.0004435
-0.007376,3.199999999999999e-05,0.000444
-0.00744,-9.600000000000003e-05,0.0004445
-0.007456,-9.600000000000003e-05,0.000445
-0.0076,-0.000144,0.0004455
-0.00768,-8.000000000000002e-05,0.000446
-0.007632,0.000256,0.0004465
-0.0077280000000000005,0.00047999999999999996,0.000447
-0.007824,0.000592,0.0004475
-0.00792,0.000624,0.000448
-0.00784,0.0007520000000000001,0.0004485
-0.00776,0.000672,0.000449
-0.007744,0.000464,0.0004495
-0.0077280000000000005,0.000256,0.00045
-0.007824,-1.600000000000001e-05,0.0004505
-0.007712,9.6e-05,0.000451
-0.007712,0.00015999999999999999,0.0004515
-0.007632,0.000384,0.000452
-0.0076,0.000528,0.0004525
-0.0077280000000000005,0.000336,0.000453
-0.007824,0.000128,0.0004535
-0.007856,4.8e-05,0.000454
-0.00784,0.0,0.0004545
-0.00792,-0.000128,0.000455
-0.007968,-0.000128,0.0004555
-0.008064,-4.8e-05,0.000456
-0.008159999999999999,4.8e-05,0.0004565
-0.008223999999999999,0.000176,0.000457
-0.008223999999999999,0.00031999999999999997,0.0004575
-0.008223999999999999,0.000384,0.000458
-0.008239999999999999,0.000432,0.0004585
-0.008208,0.00047999999999999996,0.000459
-0.008192,0.000448,0.0004595
-0.008256,0.000192,0.00046
-0.008208,6.399999999999998e-05,0.0004605
-0.008143999999999998,7.999999999999999e-05,0.000461
-0.008192,1.600000000000001e-05,0.0004615
-0.008272,-9.600000000000003e-05,0.000462
-0.008367999999999999,-0.000208,0.0004625
-0.008336,-6.400000000000001e-05,0.000463
-0.008352,0.000112,0.0004635
-0.008464,0.000224,0.000464
-0.00856,0.000288,0.0004645
-0.008688,0.000224,0.000465
-0.008655999999999999,0.00031999999999999997,0.0004655
-0.008752,0.000192,0.000466
-0.008575999999999999,0.000336,0.0004665
-0.008624,0.00014399999999999998,0.000467
-0.008688,-0.000128,0.0004675
-0.008704,-0.00025600000000000004,0.000468
-0.008624,-0.00017600000000000002,0.0004685
-0.00856,-4.8e-05,0.000469
-0.00856,3.199999999999999e-05,0.0004695
-0.008591999999999999,7.999999999999999e-05,0.00047
-0.008591999999999999,7.999999999999999e-05,0.0004705
-0.00864,6.399999999999998e-05,0.000471
-0.008672,7.999999999999999e-05,0.0004715
-0.008704,0.000128,0.000472
-0.008752,0.000128,0.0004725
-0.008783999999999998,9.6e-05,0.000473
-0.008816,9.6e-05,0.0004735
-0.008896,0.000128,0.000474
-0.008992,0.00014399999999999998,0.0004745
-0.008879999999999999,0.00031999999999999997,0.000475
-0.008799999999999999,0.000368,0.0004755
-0.008783999999999998,0.000256,0.000476
-0.008799999999999999,1.600000000000001e-05,0.0004765
-0.008816,-0.00017600000000000002,0.000477
-0.008655999999999999,-0.00017600000000000002,0.0004775
-0.008624,-0.000224,0.000478
-0.008672,-0.000304,0.0004785
-0.008816,-0.00031999999999999997,0.000479
-0.008816,-6.400000000000001e-05,0.0004795
-0.008783999999999998,0.000256,0.00048
-0.008896,0.000336,0.0004805
-0.008799999999999999,0.000528,0.000481
-0.009023999999999999,0.000304,0.0004815
-0.009056,0.000128,0.000482
-0.009056,0.0,0.0004825
-0.009056,-0.000128,0.000483
-0.00904,-0.00019199999999999998,0.0004835
-0.009007999999999999,-0.000128,0.000484
-0.00896,4.8e-05,0.0004845
-0.00896,0.000256,0.000485
-0.00896,0.000352,0.0004855
-0.008992,0.000304,0.000486
-0.008943999999999999,0.000208,0.0004865
-0.008943999999999999,7.999999999999999e-05,0.000487
-0.008992,-4.8e-05,0.0004875
-0.009023999999999999,-0.000144,0.000488
-0.009136,-0.000208,0.0004885
-0.009215999999999998,-0.00019199999999999998,0.000489
-0.009167999999999999,0.000128,0.0004895
-0.009215999999999998,0.000384,0.00049
-0.009264,0.000544,0.0004905
-0.009375999999999999,0.000464,0.000491
-0.009328,0.00039999999999999996,0.0004915
-0.009231999999999999,0.000336,0.000492
-0.009248,0.00015999999999999999,0.0004925
-0.0092,7.999999999999999e-05,0.000493
-0.009264,-0.000128,0.0004935
-0.009231999999999999,-6.400000000000001e-05,0.000494
-0.009264,7.999999999999999e-05,0.0004945
-0.009248,0.00039999999999999996,0.000495
-0.009231999999999999,0.000688,0.0004955
-0.009408,0.000624,0.000496
-0.009488,0.000528,0.0004965
-0.009503999999999999,0.00041600000000000003,0.000497
-0.009488,0.00031999999999999997,0.0004975
-0.009472,0.000208,0.000498
-0.009552,6.399999999999998e-05,0.0004985
-0.009552,-1.600000000000001e-05,0.000499
-0.009536,0.0,0.0004995
-0.009519999999999999,7.999999999999999e-05,0.0005
-0.009519999999999999,0.000272,0.0005005
-0.009536,0.000448,0.000501
-0.009519999999999999,0.000608,0.0005015
-0.009503999999999999,0.000592,0.000502
-0.009472,0.0006399999999999999,0.0005025
-0.009568,0.000592,0.000503
-0.009583999999999999,0.000704,0.0005035
-0.009503999999999999,0.000912,0.000504
-0.009552,0.000928,0.0005045
-0.009663999999999999,0.0008640000000000001,0.000505
-0.009711999999999998,0.000896,0.0005055
-0.009616,0.001136,0.000506
-0.009536,0.001312,0.0005065
-0.009536,0.001344,0.000507
-0.009503999999999999,0.001424,0.0005075
-0.009583999999999999,0.001424,0.000508
-0.009392,0.001792,0.0005085
-0.009488,0.00192,0.000509
-0.009328,0.002368,0.0005095
-0.009344,0.0026079999999999996,0.00051
-0.009424,0.002832,0.0005105
-0.009359999999999999,0.0032319999999999996,0.000511
-0.009344,0.003616,0.0005115
-0.009328,0.004032,0.000512
-0.009295999999999999,0.0044,0.0005125
-0.00928,0.004752,0.000513
-0.00928,0.005200000000000001,0.0005135
-0.009231999999999999,0.00568,0.000514
-0.009184,0.0061600000000000005,0.0005145
-0.009104,0.006592000000000001,0.000515
-0.009071999999999998,0.007024,0.0005155
-0.008976,0.007648,0.000516
-0.008863999999999999,0.0084,0.0005165
-0.008783999999999998,0.009152,0.000517
-0.008816,0.009792,0.0005175
-0.008735999999999999,0.010624,0.000518
-0.008624,0.011504,0.0005185
-0.008544,0.012256,0.000519
-0.008496,0.012864,0.0005195
-0.008367999999999999,0.013472,0.00052
-0.008095999999999999,0.014176000000000001,0.0005205
-0.007824,0.014912,0.000521
-0.007696,0.015584,0.0005215
-0.00752,0.016208,0.000522
-0.007216,0.016975999999999998,0.0005225
-0.006864,0.017744,0.000523
-0.006704,0.018272,0.0005235
-0.006224,0.018992,0.000524
-0.006048,0.019184,0.0005245
-0.0056960000000000005,0.019327999999999998,0.000525
-0.005216,0.019423999999999997,0.0005255
-0.004816,0.019407999999999998,0.000526
-0.004464,0.01936,0.0005265
-0.004064,0.019392,0.000527
-0.003696,0.019455999999999998,0.0005275
-0.0033120000000000003,0.01936,0.000528
-0.00296,0.019215999999999997,0.0005285
-0.002624,0.018896,0.000529
-0.002288,0.018463999999999998,0.0005295
-0.001968,0.017839999999999998,0.00053
-0.0017439999999999999,0.017071999999999997,0.0005305
-0.001488,0.016304,0.000531
-0.001328,0.015536,0.0005315
-0.0012159999999999999,0.0148,0.000532
-0.000992,0.014288,0.0005325
-0.000896,0.013744000000000001,0.000533
-0.0008320000000000001,0.013136,0.0005335
-0.0008320000000000001,0.012464,0.000534
-0.000816,0.011904,0.0005345
-0.000688,0.011584,0.000535
-0.000688,0.01112,0.0005355
-0.00072,0.010704,0.000536
-0.0007520000000000001,0.0104,0.0005365
-0.000816,0.010256,0.000537
-0.0008,0.010368,0.0005375
-0.000848,0.010592,0.000538
-0.000704,0.011104000000000001,0.0005385
-0.000944,0.01128,0.000539
-0.001008,0.011648,0.0005395
-0.001024,0.012096,0.00054
-0.001072,0.012528000000000001,0.0005405
-0.0011519999999999998,0.01288,0.000541
-0.001248,0.013184,0.0005415
-0.0013119999999999998,0.01352,0.000542
-0.0013759999999999998,0.013888000000000001,0.0005425
-0.0014559999999999998,0.014208,0.000543
-0.001552,0.014496,0.0005435
-0.001632,0.01472,0.000544
-0.001648,0.014944,0.0005445
-0.001808,0.014912,0.000545
-0.001856,0.014928,0.0005455
-0.001968,0.014736,0.000546
-0.002016,0.014464,0.0005465
-0.001872,0.014352,0.000547
-0.0019199999999999998,0.013968,0.0005475
-0.0019039999999999999,0.013632,0.000548
-0.0019039999999999999,0.013184,0.0005485
-0.0017439999999999999,0.012944,0.000549
-0.001552,0.012656,0.0005495
-0.001472,0.012304,0.00055
-0.001424,0.011952,0.0005505
-0.001408,0.011648,0.000551
-0.0012799999999999999,0.011600000000000001,0.0005515
-0.0011519999999999998,0.011648,0.000552
-0.00112,0.011712,0.0005525
-0.000896,0.01216,0.000553
-0.001072,0.012272,0.0005535
-0.00112,0.012592,0.000554
-0.001104,0.012992,0.0005545
-0.001024,0.013504,0.000555
-0.0011359999999999999,0.013856,0.0005555
-0.0012959999999999998,0.014176000000000001,0.000556
-0.0014559999999999998,0.014416,0.0005565
-0.0015999999999999999,0.01456,0.000557
-0.001664,0.014608,0.0005575
-0.001728,0.014592,0.000558
-0.001808,0.014496,0.0005585
-0.001872,0.0144,0.000559
-0.001888,0.014272,0.0005595
-0.001872,0.01408,0.00056
-0.0019039999999999999,0.013808,0.0005605
-0.001872,0.013568,0.000561
-0.001712,0.01344,0.0005615
-0.001632,0.013152,0.000562
-0.0015999999999999999,0.012736,0.0005625
-0.001584,0.012256,0.000563
-0.001424,0.012032000000000001,0.0005635
-0.001264,0.011952,0.000564
-0.0012159999999999999,0.011904,0.0005645
-0.0012159999999999999,0.01192,0.000565
-0.0012319999999999998,0.01192,0.0005655
-0.001168,0.012208,0.000566
-0.0011519999999999998,0.012576,0.0005665
-0.001184,0.013024,0.000567
-0.001088,0.013552,0.0005675
-0.0013119999999999998,0.013648,0.000568
-0.001328,0.013824,0.0005685
-0.0012959999999999998,0.014096000000000001,0.000569
-0.0012799999999999999,0.014368,0.0005695
-0.0012959999999999998,0.014592,0.00057
-0.0012959999999999998,0.014736,0.0005705
-0.0012959999999999998,0.014832,0.000571
-0.0012799999999999999,0.014848,0.0005715
-0.001264,0.014848,0.000572
-0.0012799999999999999,0.014704,0.0005725
-0.001264,0.014464,0.000573
-0.0012159999999999999,0.014128,0.0005735
-0.0012159999999999999,0.01368,0.000574
-0.0012159999999999999,0.013296,0.0005745
-0.0013119999999999998,0.012816000000000001,0.000575
-0.0012799999999999999,0.012528000000000001,0.0005755
-0.001168,0.012336,0.000576
-0.0012,0.012032000000000001,0.0005765
-0.001264,0.01176,0.000577
-0.0013119999999999998,0.011488,0.0005775
-0.0012319999999999998,0.011408,0.000578
-0.0011519999999999998,0.011296,0.0005785
-0.001184,0.01104,0.000579
-0.0011359999999999999,0.010928,0.0005795
-0.0011359999999999999,0.01088,0.00058
-0.001024,0.011136,0.0005805
-0.001024,0.011424,0.000581
-0.0008,0.012032000000000001,0.0005815
-0.000768,0.012464,0.000582
-0.00088,0.012736,0.0005825
-0.000976,0.013008,0.000583
-0.000992,0.013312000000000001,0.0005835
-0.000976,0.013552,0.000584
-0.00104,0.013632,0.0005845
-0.001168,0.013600000000000001,0.000585
-0.0012799999999999999,0.01352,0.0005855
-0.001408,0.013408,0.000586
-0.001488,0.013248000000000001,0.0005865
-0.0015359999999999998,0.013008,0.000587
-0.0015199999999999999,0.012736,0.0005875
-0.001504,0.012416,0.000588
-0.0015199999999999999,0.012,0.0005885
-0.0015199999999999999,0.01152,0.000589
-0.001552,0.010928,0.0005895
-0.0014559999999999998,0.010608,0.00059
-0.0012,0.010576,0.0005905
-0.001184,0.010464000000000001,0.000591
-0.001184,0.010432,0.0005915
-0.0011519999999999998,0.01056,0.000592
-0.001008,0.010944,0.0005925
-0.000928,0.011296,0.000593
-0.000944,0.011584,0.0005935
-0.000992,0.01184,0.000594
-0.001104,0.012032000000000001,0.0005945
-0.001104,0.012336,0.000595
-0.001248,0.012512,0.0005955
-0.0011519999999999998,0.012928,0.000596
-0.0012799999999999999,0.013008,0.0005965
-0.001472,0.012912,0.000597
-0.0015359999999999998,0.012864,0.0005975
-0.0015199999999999999,0.012848,0.000598
-0.001488,0.012736,0.0005985
-0.001472,0.01248,0.000599
-0.001472,0.012128,0.0005995
-0.001408,0.011696,0.0006
-0.0013119999999999998,0.011232,0.0006005
-0.001264,0.010736,0.000601
-0.0012,0.010320000000000001,0.0006015
-0.0011359999999999999,0.009968,0.000602
-0.001104,0.009648,0.0006025
-0.001104,0.009408,0.000603
-0.0011359999999999999,0.009184,0.0006035
-0.0012319999999999998,0.00904,0.000604
-0.001168,0.009168,0.0006045
-0.0011519999999999998,0.009344,0.000605
-0.0012799999999999999,0.009392000000000001,0.0006055
-0.0013599999999999999,0.009456,0.000606
-0.001392,0.009552,0.0006065
-0.0012959999999999998,0.009824,0.000607
-0.001248,0.009904,0.0006075
-0.0012799999999999999,0.009808,0.000608
-0.001264,0.009632,0.0006085
-0.001264,0.009344,0.000609
-0.0011359999999999999,0.009136,0.0006095
-0.0011519999999999998,0.008688,0.00061
-0.00088,0.008448,0.0006105
-0.000976,0.007712,0.000611
-0.001008,0.00696,0.0006115
-0.001024,0.0061600000000000005,0.000612
-0.000944,0.005504,0.0006125
-0.000912,0.004784,0.000613
-0.000912,0.00408,0.0006135
-0.000848,0.0035519999999999996,0.000614
-0.000864,0.0030719999999999996,0.0006145
-0.000848,0.0027359999999999997,0.000615
-0.000928,0.002368,0.0006155
-0.000912,0.0021119999999999997,0.000616
-0.000848,0.001904,0.0006165
-0.000768,0.0016640000000000001,0.000617
-0.000768,0.001392,0.0006175
-0.00072,0.00112,0.000618
-0.0008,0.000704,0.0006185
-0.000736,0.000432,0.000619
-0.000624,0.000192,0.0006195
-0.000608,-0.000144,0.00062
-0.000656,-0.0006079999999999999,0.0006205
-0.00072,-0.001168,0.000621
-0.000656,-0.001616,0.0006215
-0.000672,-0.0022240000000000003,0.000622
-0.000704,-0.0028480000000000003,0.0006225
-0.00072,-0.0034720000000000003,0.000623
-0.000784,-0.004064,0.0006235
-0.000656,-0.0043679999999999995,0.000624
-0.00072,-0.0048319999999999995,0.0006245
-0.0005279999999999999,-0.004912,0.000625
-0.000576,-0.0051199999999999996,0.0006255
-0.00056,-0.005183999999999999,0.000626
-0.00043200000000000004,-0.005088,0.0006265
-0.00031999999999999997,-0.00496,0.000627
-0.000176,-0.004719999999999999,0.0006275
-9.6e-05,-0.004448,0.000628
3.2000000000000005e-05,-0.004,0.0006285
0.00014399999999999998,-0.003488,0.000629
0.00015999999999999999,-0.003056,0.0006295
0.00020800000000000001,-0.002592,0.00063
0.00030399999999999996,-0.0020640000000000003,0.0006305
0.00031999999999999997,-0.001632,0.000631
0.000336,-0.0012799999999999999,0.0006315
0.000336,-0.001056,0.000632
0.000384,-0.0009759999999999999,0.0006325
0.00030399999999999996,-0.00112,0.000633
0.00039999999999999996,-0.001088,0.0006335
0.000576,-0.000928,0.000634
0.000688,-0.000848,0.0006345
0.000784,-0.0008320000000000001,0.000635
0.000896,-0.000848,0.0006355
0.001216,-0.0005279999999999999,0.000636
0.0015040000000000001,-0.00019199999999999998,0.0006365
0.00168,-1.600000000000001e-05,0.000637
0.001904,0.000128,0.0006375
0.0021119999999999997,0.000336,0.000638
0.002464,0.00072,0.0006385
0.0025759999999999997,0.0009440000000000001,0.000639
0.002944,0.001536,0.0006395
0.0030239999999999998,0.001744,0.00064
0.003136,0.00192,0.0006405
0.003312,0.0021119999999999997,0.000641
0.0035039999999999997,0.00224,0.0006415
0.003696,0.002352,0.000642
0.00392,0.002352,0.0006425
0.00416,0.002208,0.000643
0.004432,0.002,0.0006435
0.004768,0.001744,0.000644
0.005136,0.001488,0.0006445
0.0054399999999999995,0.0012,0.000645
0.005776,0.00096,0.0006455
0.006144,0.0007520000000000001,0.000646
0.006496,0.000608,0.0006465
0.00672,0.000464,0.000647
0.006816,0.000208,0.0006475
0.007088,0.00014399999999999998,0.000648
0.007312,0.000112,0.0006485
0.007408,-6.400000000000001e-05,0.000649
0.007392,-0.000272,0.0006495
0.007376,-0.00036799999999999995,0.00065
0.007488,-0.00017600000000000002,0.0006505
0.0074399999999999996,-9.600000000000003e-05,0.000651
0.007328,-0.000128,0.0006515
0.00728,-8.000000000000002e-05,0.000652
0.007264,-4.8e-05,0.0006525
0.007312,3.199999999999999e-05,0.000653
0.007168,-6.400000000000001e-05,0.0006535
0.007328,0.000192,0.000654
0.007168,6.399999999999998e-05,0.0006545
0.007104,-1.600000000000001e-05,0.000655
0.007104,-4.8e-05,0.0006555
0.007056,-0.000144,0.000656
0.007024,-0.00019199999999999998,0.0006565
0.006944,-0.00024,0.000657
0.0068319999999999995,-0.000208,0.0006575
0.006768,-4.8e-05,0.000658
0.006768,0.000208,0.0006585
0.006704,0.000352,0.000659
0.006704,0.00047999999999999996,0.0006595
0.006608,0.000352,0.00066
0.006752,0.00031999999999999997,0.0006605
0.006768,0.000128,0.000661
0.006864,0.0,0.0006615
0.006944,-0.00011199999999999998,0.000662
0.0071519999999999995,1.600000000000001e-05,0.0006625
0.007344,0.000112,0.000663
0.00736,-0.000128,0.0006635
0.007456,-0.00036799999999999995,0.000664
0.007568,-0.000672,0.0006645
0.007696,-0.0009599999999999999,0.000665
0.007711999999999999,-0.001232,0.0006655
0.007664,-0.0014399999999999999,0.000666
0.0076159999999999995,-0.001552,0.0006665
0.0076159999999999995,-0.0014399999999999999,0.000667
0.007632,-0.001232,0.0006675
0.0076159999999999995,-0.001008,0.000668
0.007664,-0.000736,0.0006685
0.007488,-0.000736,0.000669
0.0074719999999999995,-0.000624,0.0006695
0.0076,-0.000384,0.00067
0.007696,-0.000208,0.0006705
0.00776,-8.000000000000002e-05,0.000671
0.0077919999999999994,-3.199999999999999e-05,0.0006715
0.007888000000000001,-8.000000000000002e-05,0.000672
0.008016,-0.00017600000000000002,0.0006725
0.00808,-0.00033599999999999993,0.000673
0.008144,-0.000464,0.0006735
0.008192000000000001,-0.0005279999999999999,0.000674
0.008208,-0.000576,0.0006745
0.008224,-0.000656,0.000675
0.008288,-0.000768,0.0006755
0.008272000000000002,-0.001104,0.000676
0.00824,-0.001376,0.0006765
0.008272000000000002,-0.001472,0.000677
0.00824,-0.001584,0.0006775
0.008208,-0.001584,0.000678
0.008176000000000001,-0.001472,0.0006785
0.008224,-0.001168,0.000679
0.008288,-0.000784,0.0006795
0.008224,-0.00056,0.00068
0.008192000000000001,-0.00047999999999999996,0.0006805
0.008144,-0.000544,0.000681
0.008256000000000001,-0.00041600000000000003,0.0006815
0.008288,-0.00031999999999999997,0.000682
0.008336000000000001,-0.00017600000000000002,0.0006825
0.00824,-0.000128,0.000683
0.00808,-0.00019199999999999998,0.0006835
0.008048000000000001,-0.000128,0.000684
0.00816,6.399999999999998e-05,0.0006845
0.008176000000000001,4.8e-05,0.000685
0.00816,-6.400000000000001e-05,0.0006855
0.008192000000000001,-0.00024,0.000686
0.008224,-0.000512,0.0006865
0.008304,-0.000704,0.000687
0.008480000000000001,-0.000768,0.0006875
0.008608000000000001,-0.0007199999999999999,0.000688
0.008624000000000001,-0.000656,0.0006885
0.008624000000000001,-0.00047999999999999996,0.000689
0.008688000000000001,-0.000304,0.0006895
0.00872,-0.00025600000000000004,0.00069
0.008672000000000001,-0.000384,0.0006905
0.008736,-0.000384,0.000691
0.008736,-0.000384,0.0006915
0.008608000000000001,-0.000496,0.000692
0.008448,-0.000688,0.0006925
0.008352,-0.0007199999999999999,0.000693
0.008416000000000002,-0.000512,0.0006935
0.008368,-0.00039999999999999996,0.000694
0.008208,-0.000512,0.0006945
0.008096,-0.0007199999999999999,0.000695
0.008112000000000001,-0.0008959999999999999,0.0006955
0.00824,-0.0008799999999999999,0.000696
0.008208,-0.0009599999999999999,0.0006965
0.008528,-0.0006079999999999999,0.000697
0.00856,-0.0006399999999999999,0.0006975
0.008576,-0.0007199999999999999,0.000698
0.00872,-0.000704,0.0006985
0.00888,-0.0006399999999999999,0.000699
0.008976000000000001,-0.000624,0.0006995
0.009008,-0.000656,0.0007
0.009024,-0.000592,0.0007005
0.009056000000000002,-0.000384,0.000701
0.009024,-0.000272,0.0007015
0.008960000000000001,-0.000272,0.000702
0.008832000000000001,-0.000496,0.0007025
0.008768000000000001,-0.000752,0.000703
0.008704,-0.0009759999999999999,0.0007035
0.008656,-0.001104,0.000704
0.008576,-0.001232,0.0007045
0.008512,-0.0012,0.000705
0.008576,-0.000928,0.0007055
0.00856,-0.000704,0.000706
0.00856,-0.000512,0.0007065
0.00856,-0.00044799999999999994,0.000707
0.008672000000000001,-0.00031999999999999997,0.0007075
0.008864,-8.000000000000002e-05,0.000708
0.008928,1.600000000000001e-05,0.0007085
0.009008,4.8e-05,0.000709
0.008976000000000001,-6.400000000000001e-05,0.0007095
0.009008,-8.000000000000002e-05,0.00071
0.009120000000000001,0.000112,0.0007105
0.009184000000000001,0.000448,0.000711
0.009296,0.000784,0.0007115
0.009120000000000001,0.00072,0.000712
0.009024,0.00056,0.0007125
0.008992,0.00031999999999999997,0.000713
0.009008,0.000112,0.0007135
0.009040000000000001,-0.000128,0.000714
0.009088,-0.00033599999999999993,0.0007145
0.009104000000000001,-0.000384,0.000715
0.009072,-0.00033599999999999993,0.0007155
0.009008,-0.000272,0.000716
0.008976000000000001,-0.00024,0.0007165
0.009040000000000001,-0.00024,0.000717
0.009072,-0.00036799999999999995,0.0007175
0.009104000000000001,-0.00044799999999999994,0.000718
0.009136,-0.00039999999999999996,0.0007185
0.009024,-0.00039999999999999996,0.000719
0.009104000000000001,-0.00017600000000000002,0.0007195
0.009248000000000001,0.00015999999999999999,0.00072
0.009312,0.000336,0.0007205
0.00928,0.000336,0.000721
0.009232,0.000288,0.0007215
0.009376,0.00041600000000000003,0.000722
0.00944,0.000512,0.0007225
0.00944,0.000464,0.000723
0.009424,0.000352,0.0007235
0.009344000000000002,0.00015999999999999999,0.000724
0.009408000000000001,0.00014399999999999998,0.0007245
0.00928,-0.00011199999999999998,0.000725
0.009376,-6.400000000000001e-05,0.0007255
0.009232,-0.00028799999999999995,0.000726
0.009200000000000002,-0.00039999999999999996,0.0007265
0.009168,-0.00039999999999999996,0.000727
0.009184000000000001,-0.000304,0.0007275
0.009216,-0.000208,0.000728
0.009248000000000001,-0.000144,0.0007285
0.009296,-0.00011199999999999998,0.000729
0.00936,-0.00011199999999999998,0.0007295
0.00944,-0.00011199999999999998,0.00073
0.009472000000000001,-0.00017600000000000002,0.0007305
0.009536000000000001,-0.000208,0.000731
0.009584,-0.00016,0.0007315
0.009600000000000001,-4.8e-05,0.000732
0.009616000000000001,0.000112,0.0007325
0.009488,0.000112,0.000733
0.009392000000000001,0.00015999999999999999,0.0007335
0.009392000000000001,0.00041600000000000003,0.000734
0.00928,0.000464,0.0007345
0.009072,0.00031999999999999997,0.000735
0.008944,0.000128,0.0007355
0.008928,7.999999999999999e-05,0.000736
0.008928,0.00015999999999999999,0.0007365
0.008816000000000001,0.000224,0.000737
0.008752000000000001,0.000352,0.0007375
0.00864,0.000368,0.000738
0.008688000000000001,0.000496,0.0007385
0.008656,0.000512,0.000739
0.008736,0.000576,0.0007395
0.008656,0.000496,0.00074
0.008416000000000002,0.000176,0.0007405
0.008320000000000001,-3.199999999999999e-05,0.000741
0.008288,-0.00011199999999999998,0.0007415
0.00816,-0.00011199999999999998,0.000742
0.007840000000000001,-8.000000000000002e-05,0.0007425
0.007536,0.00015999999999999999,0.000743
0.007232,0.00039999999999999996,0.0007435
0.006928,0.000512,0.000744
0.006704,0.000528,0.0007445
0.00648,0.00047999999999999996,0.000745
0.0062239999999999995,0.000336,0.0007455
0.005984,0.000176,0.000746
0.005856,0.00015999999999999999,0.0007465
0.005648,0.00015999999999999999,0.000747
0.00536,0.000176,0.0007475
0.0052,0.00039999999999999996,0.000748
0.0049759999999999995,0.000512,0.0007485
0.004672,0.00039999999999999996,0.000749
0.00432,6.399999999999998e-05,0.0007495
0.003984,-0.00024,0.00075
0.003776,-0.000304,0.0007505
0.003456,-0.00033599999999999993,0.000751
0.00296,-0.00041600000000000003,0.0007515
0.00248,-0.00044799999999999994,0.000752
0.002032,-0.000432,0.0007525
0.001776,-0.00025600000000000004,0.000753
0.001312,-0.000304,0.0007535
0.001216,-1.600000000000001e-05,0.000754
0.000864,-4.8e-05,0.0007545
0.000608,-4.8e-05,0.000755
0.00047999999999999996,3.199999999999999e-05,0.0007555
0.000384,0.000112,0.000756
0.000288,0.000208,0.0007565
0.000192,0.000192,0.000757
0.000112,0.000176,0.0007575
1.5999999999999996e-05,0.00015999999999999999,0.000758
-4.8e-05,0.00024,0.0007585
-0.000112,0.000272,0.000759
-0.000192,0.000256,0.0007595
-0.00020800000000000001,0.000208,0.00076
-0.000144,0.000192,0.0007605
-4.8e-05,-3.199999999999999e-05,0.000761
-0.000304,-0.00025600000000000004,0.0007615
-0.000192,-0.00016,0.000762
3.2000000000000005e-05,-1.600000000000001e-05,0.0007625
0.000176,-8.000000000000002e-05,0.000763
0.000368,-0.00017600000000000002,0.0007635
0.000576,-0.000208,0.000764
0.0009119999999999999,-3.199999999999999e-05,0.0007645
0.001136,9.6e-05,0.000765
0.00128,0.000128,0.0007655
0.0014080000000000002,0.000192,0.000766
0.001472,0.000128,0.0007665
0.00168,0.000224,0.000767
0.0017280000000000002,0.000176,0.0007675
0.001936,0.00031999999999999997,0.000768
0.001984,0.000224,0.0007685
0.0018560000000000002,-6.400000000000001e-05,0.000769
0.00184,-0.000128,0.0007695
0.00184,-8.000000000000002e-05,0.00077
0.0018080000000000001,-4.8e-05,0.0007705
0.001776,-3.199999999999999e-05,0.000771
0.00176,0.0,0.0007715
0.0017280000000000002,0.0,0.000772
0.0016640000000000001,-8.000000000000002e-05,0.0007725
0.001616,-0.00017600000000000002,0.000773
0.0016,-0.00025600000000000004,0.0007735
0.001552,-0.000208,0.000774
0.0015040000000000001,-0.00011199999999999998,0.0007745
0.001456,9.6e-05,0.000775
0.001392,0.00031999999999999997,0.0007755
0.0012640000000000001,0.000384,0.000776
0.00128,0.000496,0.0007765
0.0012640000000000001,0.00047999999999999996,0.000777
0.001216,0.000352,0.0007775
0.0010240000000000002,7.999999999999999e-05,0.000778
0.000992,3.199999999999999e-05,0.0007785
0.0010400000000000001,0.000128,0.000779
0.001008,0.00014399999999999998,0.0007795
0.0009279999999999999,9.6e-05,0.00078
0.000816,6.399999999999998e-05,0.0007805
0.000768,7.999999999999999e-05,0.000781
0.000832,0.000208,0.0007815
0.000752,0.00014399999999999998,0.000782
0.0009119999999999999,0.00031999999999999997,0.0007825
0.0008,6.399999999999998e-05,0.000783
0.000752,-0.000144,0.0007835
0.000784,-0.00025600000000000004,0.000784
0.000848,-0.000224,0.0007845
0.0009279999999999999,-0.00016,0.000785
0.000992,-6.400000000000001e-05,0.0007855
0.0010240000000000002,6.399999999999998e-05,0.000786
0.001088,0.000208,0.0007865
0.0011840000000000002,0.000368,0.000787
0.0012000000000000001,0.000304,0.0007875
0.00128,0.000208,0.000788
0.00136,0.000176,0.0007885
0.00136,0.00015999999999999999,0.000789
0.0013440000000000001,0.00015999999999999999,0.0007895
0.0012480000000000002,9.6e-05,0.00079
0.0011680000000000002,0.00014399999999999998,0.0007905
0.0012000000000000001,0.000352,0.000791
0.001152,0.000432,0.0007915
0.0010240000000000002,0.000336,0.000792
0.000896,7.999999999999999e-05,0.0007925
0.000896,-1.600000000000001e-05,0.000793
0.00088,-8.000000000000002e-05,0.0007935
0.000832,-0.000144,0.000794
0.000784,-0.000144,0.0007945
0.0006399999999999999,-0.000208,0.000795
0.000624,-0.000128,0.0007955
0.0006399999999999999,-4.8e-05,0.000796
0.000688,1.600000000000001e-05,0.0007965
0.000736,6.399999999999998e-05,0.000797
0.0006399999999999999,-6.400000000000001e-05,0.0007975
0.000656,-8.000000000000002e-05,0.000798
0.000704,-3.199999999999999e-05,0.0007985
0.000784,9.6e-05,0.000799
0.000848,0.000176,0.0007995
0.0009119999999999999,0.00024,0.0008
0.000976,0.000224,0.0008005
0.001008,0.000112,0.000801
0.0011040000000000002,9.6e-05,0.0008015
0.001152,9.6e-05,0.000802
0.001152,0.000128,0.0008025
0.001152,0.000176,0.000803
0.001136,0.000192,0.0008035
0.001136,0.000192,0.000804
0.001008,-1.600000000000001e-05,0.0008045
0.000976,-9.600000000000003e-05,0.000805
0.001008,1.600000000000001e-05,0.0008055
0.00088,0.0,0.000806
0.000736,-8.000000000000002e-05,0.0008065
0.000608,-0.00017600000000000002,0.000807
0.000608,-0.00011199999999999998,0.0008075
0.000672,7.999999999999999e-05,0.000808
0.000608,9.6e-05,0.0008085
0.000656,0.000128,0.000809
0.000592,-4.8e-05,0.0008095
0.000736,-1.600000000000001e-05,0.00081
0.000752,-8.000000000000002e-05,0.0008105
0.000992,9.6e-05,0.000811
0.0011200000000000001,0.00015999999999999999,0.0008115
0.001056,-1.600000000000001e-05,0.000812
0.0011040000000000002,-3.199999999999999e-05,0.0008125
0.0011840000000000002,1.600000000000001e-05,0.000813
0.0012000000000000001,1.600000000000001e-05,0.0008135
0.0012000000000000001,0.0,0.000814
0.00128,0.000112,0.0008145
0.001232,9.6e-05,0.000815
0.0011840000000000002,0.00014399999999999998,0.0008155
0.001136,0.000208,0.000816
0.001072,0.000192,0.0008165
0.001008,0.00015999999999999999,0.000817
0.000976,0.000112,0.0008175
0.000992,0.000128,0.000818
0.00088,0.00014399999999999998,0.0008185
0.000192,0.00014399999999999998,0.000819
0.000432,0.000304,0.0008195
0.000624,0.000384,0.00082
0.0008,0.000352,0.0008205
0.000848,9.6e-05,0.000821
0.0009279999999999999,-0.00011199999999999998,0.0008215
0.0011200000000000001,-0.000128,0.000822
0.001232,-8.000000000000002e-05,0.0008225
0.001216,-0.00011199999999999998,0.000823
0.0011680000000000002,-0.000128,0.0008235
0.001152,-4.8e-05,0.000824
0.0012480000000000002,0.00015999999999999999,0.0008245
0.0011680000000000002,0.000208,0.000825
0.001376,0.000528,0.0008255
0.0012480000000000002,0.000368,0.000826
0.0011680000000000002,0.00015999999999999999,0.0008265
0.001232,9.6e-05,0.000827
0.0012480000000000002,3.199999999999999e-05,0.0008275
0.0012640000000000001,4.8e-05,0.000828
0.001232,7.999999999999999e-05,0.0008285
0.001216,0.00015999999999999999,0.000829
0.001232,0.00024,0.0008295
0.0012480000000000002,0.00031999999999999997,0.00083
0.0012480000000000002,0.000352,0.0008305
0.0012480000000000002,0.000208,0.000831
0.00128,4.8e-05,0.0008315
0.0012480000000000002,-9.600000000000003e-05,0.000832
0.0012640000000000001,-6.400000000000001e-05,0.0008325
0.001232,-6.400000000000001e-05,0.000833
0.0011840000000000002,-8.000000000000002e-05,0.0008335
0.0012480000000000002,1.600000000000001e-05,0.000834
0.0012640000000000001,0.00014399999999999998,0.0008345
0.0012000000000000001,0.000176,0.000835
0.0010240000000000002,0.000128,0.0008355
0.00096,0.000128,0.000836
0.000976,0.00024,0.0008365
0.000896,0.00024,0.000837
0.0008,0.000224,0.0008375
0.0006399999999999999,0.000128,0.000838
0.000608,0.00015999999999999999,0.0008385
0.000656,0.000352,0.000839
0.000576,0.00039999999999999996,0.0008395
0.000688,0.000608,0.00084
0.000608,0.000448,0.0008405
0.000592,0.000336,0.000841
0.0006399999999999999,0.000304,0.0008415
0.0007199999999999999,0.000304,0.000842
0.000736,0.00024,0.0008425
0.000736,0.000208,0.000843
0.000768,0.000256,0.0008435
0.000784,0.000272,0.000844
0.000784,0.00024,0.0008445
0.0006399999999999999,0.000112,0.000845
0.000464,4.8e-05,0.0008455
0.00030399999999999996,9.6e-05,0.000846
8e-05,0.00015999999999999999,0.0008465
-1.5999999999999996e-05,0.00031999999999999997,0.000847
-0.000288,0.000256,0.0008475
-0.00043200000000000004,0.000256,0.000848
-0.000448,0.000368,0.0008485
-0.000592,0.000288,0.000849
-0.000688,0.00015999999999999999,0.0008495
-0.000704,9.6e-05,0.00085
-0.00064,0.00015999999999999999,0.0008505
-0.000592,0.00024,0.000851
-0.000624,0.00024,0.0008515
-0.000624,0.000224,0.000852
-0.000736,7.999999999999999e-05,0.0008525
-0.00064,0.00015999999999999999,0.000853
-0.0008,1.600000000000001e-05,0.0008535
-0.000816,9.6e-05,0.000854
-0.000992,7.999999999999999e-05,0.0008545
-0.0013599999999999999,3.199999999999999e-05,0.000855
-0.001664,0.00014399999999999998,0.0008555
-0.001968,0.000272,0.000856
-0.002288,0.000352,0.0008565
-0.002592,0.000352,0.000857
-0.0028640000000000002,0.000352,0.0008575
-0.0031520000000000003,0.000304,0.000858
-0.003408,0.000224,0.0008585
-0.0036320000000000002,0.00015999999999999999,0.000859
-0.0037760000000000003,0.000176,0.0008595
-0.003952,0.000176,0.00086
-0.004064,0.000208,0.0008605
-0.0041600000000000005,0.000208,0.000861
-0.0043360000000000004,0.000112,0.0008615
-0.004592,-4.8e-05,0.000862
-0.00472,7.999999999999999e-05,0.0008625
-0.0048000000000000004,0.000352,0.000863
-0.005024,0.000448,0.0008635
-0.005328,0.00041600000000000003,0.000864
-0.005632,0.000352,0.0008645
-0.005856,0.000368,0.000865
-0.006096,0.000384,0.0008655
-0.006416,0.000256,0.000866
-0.006672,0.000128,0.0008665
-0.006928,1.600000000000001e-05,0.000867
-0.006992,0.00015999999999999999,0.0008675
-0.007216,0.000192,0.000868
-0.007136,0.000496,0.0008685
-0.007328,0.000352,0.000869
-0.007376,0.00014399999999999998,0.0008695
-0.007312,0.0,0.00087
-0.0072,-4.8e-05,0.0008705
-0.007104,-8.000000000000002e-05,0.000871
-0.007008,-3.199999999999999e-05,0.0008715
-0.0069440000000000005,1.600000000000001e-05,0.000872
-0.006848,0.00014399999999999998,0.0008725
-0.006752,0.000288,0.000873
-0.006608,0.000464,0.0008735
-0.006544,0.000528,0.000874
-0.006528,0.000448,0.0008745
-0.006544,0.000224,0.000875
-0.00656,9.6e-05,0.0008755
-0.006608,4.8e-05,0.000876
-0.006672,9.6e-05,0.0008765
-0.006608,0.000336,0.000877
-0.006592,0.00047999999999999996,0.0008775
-0.00672,0.00047999999999999996,0.000878
-0.006896,0.000448,0.0008785
-0.006864,0.000528,0.000879
-0.006704,0.000688,0.0008795
-0.006768,0.00056,0.00088
-0.0068000000000000005,0.00041600000000000003,0.0008805
-0.006992,0.000176,0.000881
-0.007024,0.000192,0.0008815
-0.007056,0.000304,0.000882
-0.007168,0.000384,0.0008825
-0.007104,0.000608,0.000883
-0.007504,0.00024,0.0008835
-0.007648,3.199999999999999e-05,0.000884
-0.007776,-9.600000000000003e-05,0.0008845
-0.007872,-0.00011199999999999998,0.000885
-0.007951999999999999,-0.000128,0.0008855
-0.008064,-0.000208,0.000886
-0.008079999999999999,-0.000224,0.0008865
-0.008064,-0.00016,0.000887
-0.007984,-3.199999999999999e-05,0.0008875
-0.007856,0.000112,0.000888
-0.0077280000000000005,0.00015999999999999999,0.0008885
-0.007616,0.000112,0.000889
-0.007456,0.000112,0.0008895
-0.00728,0.000176,0.00089
-0.0072,0.00014399999999999998,0.0008905
-0.007152,0.00015999999999999999,0.000891
-0.006976,0.00031999999999999997,0.0008915
-0.006976,0.000368,0.000892
-0.0070880000000000006,0.00031999999999999997,0.0008925
-0.007248,0.000208,0.000893
-0.00728,0.000224,0.0008935
-0.007376,0.000272,0.000894
-0.007632,0.000176,0.0008945
-0.007824,0.00014399999999999998,0.000895
-0.008079999999999999,7.999999999999999e-05,0.0008955
-0.008128,0.000272,0.000896
-0.008208,0.000352,0.0008965
-0.008192,0.000432,0.000897
-0.008143999999999998,0.00039999999999999996,0.0008975
-0.008272,0.00014399999999999998,0.000898
-0.008239999999999999,3.199999999999999e-05,0.0008985
-0.008159999999999999,1.600000000000001e-05,0.000899
-0.008064,4.8e-05,0.0008995
-0.008112,-4.8e-05,0.0009
-0.008064,-4.8e-05,0.0009005
-0.008048,0.0,0.000901
-0.008095999999999999,1.600000000000001e-05,0.0009015
-0.008128,3.199999999999999e-05,0.000902
-0.008176,1.600000000000001e-05,0.0009025
-0.008239999999999999,-4.8e-05,0.000903
-0.008336,-0.000128,0.0009035
-0.008383999999999999,-8.000000000000002e-05,0.000904
-0.0084,3.199999999999999e-05,0.0009045
-0.008511999999999999,1.600000000000001e-05,0.000905
-0.008511999999999999,4.8e-05,0.0009055
-0.008272,0.000272,0.000906
-0.008208,0.000256,0.0009065
-0.008143999999999998,0.000176,0.000907
-0.008176,-9.600000000000003e-05,0.0009075
-0.007968,-0.000144,0.000908
-0.007872,-0.000128,0.0009085
-0.007888,-0.000128,0.000909
-0.007904,-1.600000000000001e-05,0.0009095
-0.008048,1.600000000000001e-05,0.00091
-0.008112,9.6e-05,0.0009105
-0.00832,6.399999999999998e-05,0.000911
-0.008303999999999999,0.000192,0.0009115
-0.008416,0.000176,0.000912
-0.008719999999999999,-8.000000000000002e-05,0.0009125
-0.008848,-0.00016,0.000913
-0.008912,-0.000144,0.0009135
-0.008943999999999999,-9.600000000000003e-05,0.000914
-0.008943999999999999,0.0,0.0009145
-0.008863999999999999,4.8e-05,0.000915
-0.008783999999999998,0.0,0.0009155
-0.008655999999999999,-0.00011199999999999998,0.000916
-0.00848,-0.00019199999999999998,0.0009165
-0.008303999999999999,-0.00019199999999999998,0.000917
-0.008112,-0.00019199999999999998,0.0009175
-0.007999999999999998,-0.000208,0.000918
-0.007935999999999999,-0.00025600000000000004,0.0009185
-0.00792,-0.00036799999999999995,0.000919
-0.008015999999999999,-0.000544,0.0009195
-0.008079999999999999,-0.000544,0.00092
-0.008112,-0.00033599999999999993,0.0009205
-0.008176,-0.00028799999999999995,0.000921
-0.00848,-0.000576,0.0009215
-0.008688,-0.000768,0.000922
-0.008719999999999999,-0.000752,0.0009225
-0.008816,-0.000704,0.000923
-0.00896,-0.0008159999999999999,0.0009235
-0.00904,-0.001008,0.000924
-0.009087999999999999,-0.001232,0.0009245
-0.008992,-0.001296,0.000925
-0.008992,-0.001488,0.0009255
-0.008688,-0.001344,0.000926
-0.00864,-0.001552,0.0009265
-0.00864,-0.0018559999999999998,0.000927
-0.00856,-0.0020640000000000003,0.0009275
-0.00848,-0.00216,0.000928
-0.008447999999999999,-0.0022240000000000003,0.0009285
-0.008511999999999999,-0.002432,0.000929
-0.008496,-0.0026560000000000004,0.0009295
-0.008575999999999999,-0.003024,0.00093
-0.00864,-0.003344,0.0009305
-0.008719999999999999,-0.0036160000000000003,0.000931
-0.008783999999999998,-0.00384,0.0009315
-0.008896,-0.004144,0.000932
-0.008976,-0.004496,0.0009325
-0.009023999999999999,-0.004944,0.000933
-0.009007999999999999,-0.005327999999999999,0.0009335
-0.00912,-0.005952,0.000934
-0.009023999999999999,-0.0063999999999999994,0.0009345
-0.008943999999999999,-0.007024,0.000935
-0.008896,-0.007712,0.0009355
-0.00904,-0.008608,0.000936
-0.00904,-0.009216,0.0009365
-0.00896,-0.009616,0.000937
-0.008976,-0.010128,0.0009375
-0.009023999999999999,-0.0108,0.000938
-0.009104,-0.0116,0.0009385
-0.009167999999999999,-0.012416,0.000939
-0.009104,-0.013056,0.0009395
-0.009248,-0.013904,0.00094
-0.009071999999999998,-0.01432,0.0009405
-0.009136,-0.015072,0.000941
-0.009231999999999999,-0.015808000000000003,0.0009415
-0.0092,-0.016368,0.000942
-0.009104,-0.016880000000000003,0.0009425
-0.009056,-0.017456000000000003,0.000943
-0.009023999999999999,-0.018064,0.0009435
-0.008943999999999999,-0.018496000000000002,0.000944
-0.008879999999999999,-0.018768,0.0009445
-0.008896,-0.018928,0.000945
-0.008896,-0.018944000000000003,0.0009455
-0.008927999999999998,-0.018928,0.000946
-0.008992,-0.018928,0.0009465
-0.009007999999999999,-0.0188,0.000947
-0.009023999999999999,-0.018464,0.0009475
-0.009071999999999998,-0.018160000000000003,0.000948
-0.009215999999999998,-0.017968,0.0009485
-0.009167999999999999,-0.017584000000000002,0.000949
-0.009087999999999999,-0.0172,0.0009495
-0.009056,-0.016832000000000003,0.00095
-0.00904,-0.01648,0.0009505
-0.008992,-0.015968000000000003,0.000951
-0.008816,-0.015231999999999999,0.0009515
-0.008688,-0.014608,0.000952
-0.008608,-0.014032,0.0009525
-0.008527999999999999,-0.013536,0.000953
-0.0084,-0.013087999999999999,0.0009535
-0.008239999999999999,-0.012576,0.000954
-0.008208,-0.012224,0.0009545
-0.007984,-0.011584,0.000955
-0.008064,-0.011328,0.0009555
-0.008064,-0.01096,0.000956
-0.007984,-0.010624,0.0009565
-0.00784,-0.010352,0.000957
-0.007808,-0.010272,0.0009575
-0.007744,-0.010239999999999999,0.000958
-0.007632,-0.010272,0.0009585
-0.00744,-0.010368,0.000959
-0.007248,-0.01056,0.0009595
-0.007024,-0.010848,0.00096
-0.0068000000000000005,-0.011248,0.0009605
-0.00656,-0.011663999999999999,0.000961
-0.006256,-0.012015999999999999,0.0009615
-0.005936,-0.012384,0.000962
-0.005744,-0.012879999999999999,0.0009625
-0.005536,-0.01336,0.000963
-0.005184,-0.013632,0.0009635
-0.004896,-0.013968,0.000964
-0.004752,-0.014352,0.0009645
-0.004656,-0.014816,0.000965
-0.0044,-0.015104,0.0009655
-0.0041600000000000005,-0.015264,0.000966
-0.004,-0.015344,0.0009665
-0.003824,-0.015408,0.000967
-0.003696,-0.015503999999999999,0.0009675
-0.003488,-0.015472000000000001,0.000968
-0.0032,-0.015328,0.0009685
-0.002896,-0.015136,0.000969
-0.0025280000000000003,-0.014768,0.0009695
-0.002336,-0.014544,0.00097
-0.002032,-0.014144,0.0009705
-0.001648,-0.0136,0.000971
-0.0013119999999999998,-0.013023999999999999,0.0009715
-0.001088,-0.01248,0.000972
-0.000896,-0.011968,0.0009725
-0.000704,-0.011504,0.000973
-0.0005279999999999999,-0.011087999999999999,0.0009735
-0.0004,-0.010752,0.000974
-0.00031999999999999997,-0.010432,0.0009745
-0.000304,-0.010159999999999999,0.000975
-0.000368,-0.009872,0.0009755
-0.000368,-0.009696,0.000976
-0.000304,-0.009696,0.0009765
-0.000352,-0.01,0.000977
-0.000448,-0.010416,0.0009775
-0.00031999999999999997,-0.01056,0.000978
-0.00031999999999999997,-0.010912,0.0009785
-0.0004,-0.011456,0.000979
-0.000448,-0.012015999999999999,0.0009795
-0.00041600000000000003,-0.012528,0.00098
-0.0004,-0.013008,0.0009805
-0.00048,-0.013536,0.000981
-0.000624,-0.014,0.0009815
-0.000896,-0.014512,0.000982
-0.001008,-0.01472,0.0009825
-0.0011519999999999998,-0.014784,0.000983
-0.001392,-0.014832,0.0009835
-0.0015359999999999998,-0.01472,0.000984
-0.0018399999999999998,-0.014848,0.0009845
-0.002032,-0.014816,0.000985
-0.002128,-0.014591999999999999,0.0009855
-0.0022080000000000003,-0.014288,0.000986
-0.0022400000000000002,-0.013888,0.0009865
-0.002288,-0.01344,0.000987
-0.002272,-0.012976,0.0009875
-0.002192,-0.012496,0.000988
-0.002064,-0.012015999999999999,0.0009885
-0.0019199999999999998,-0.0116,0.000989
-0.0018239999999999999,-0.011296,0.0009895
-0.0016959999999999998,-0.011008,0.00099
-0.0015999999999999999,-0.010768,0.0009905
-0.001504,-0.010576,0.000991
-0.001504,-0.010528,0.0009915
-0.001472,-0.010432,0.000992
-0.001328,-0.010256,0.0009925
-0.0012959999999999998,-0.010303999999999999,0.000993
-0.0013119999999999998,-0.010624,0.0009935
-0.001328,-0.011008,0.000994
-0.001264,-0.011408,0.0009945
-0.00112,-0.011648,0.000995
-0.001072,-0.011951999999999999,0.0009955
-0.001024,-0.012303999999999999,0.000996
-0.0010559999999999999,-0.012704,0.0009965
-0.000992,-0.012879999999999999,0.000997
-0.000944,-0.013008,0.0009975
-0.000944,-0.013152,0.000998
-0.000896,-0.013168,0.0009985
-0.0010559999999999999,-0.01344,0.000999
