# Incident [V], Transmitted [V], time [s]
0.0,0.0,0.0
-4.8e-05,-6.399999999999998e-05,5e-07
-0.00012800000000000002,-0.00014399999999999998,1e-06
4.8e-05,4.800000000000003e-05,1.5e-06
6.4e-05,7.999999999999999e-05,2e-06
0.0,0.0,2.5e-06
-6.4e-05,-9.6e-05,3e-06
-4.8e-05,-6.399999999999998e-05,3.5e-06
3.2000000000000005e-05,4.800000000000003e-05,4e-06
6.4e-05,7.999999999999999e-05,4.5e-06
4.8e-05,6.400000000000004e-05,5e-06
-7.999999999999999e-05,-9.6e-05,5.5e-06
-6.4e-05,-6.399999999999998e-05,6e-06
-3.2000000000000005e-05,-4.7999999999999974e-05,6.5e-06
-9.6e-05,-0.00011199999999999996,7e-06
0.00015999999999999999,0.000192,7.5e-06
7.999999999999999e-05,7.999999999999999e-05,8e-06
-7.999999999999999e-05,-0.00011199999999999996,8.5e-06
-7.999999999999999e-05,-0.00012799999999999997,9e-06
-1.6000000000000003e-05,-4.7999999999999974e-05,9.5e-06
0.0,-1.600000000000001e-05,1e-05
0.0,-3.1999999999999965e-05,1.05e-05
0.0,-3.1999999999999965e-05,1.1e-05
0.0,-3.1999999999999965e-05,1.15e-05
-1.6000000000000003e-05,-7.999999999999999e-05,1.2e-05
1.5999999999999996e-05,-1.600000000000001e-05,1.25e-05
3.2000000000000005e-05,0.0,1.3e-05
-1.6000000000000003e-05,-6.399999999999998e-05,1.35e-05
-1.6000000000000003e-05,-7.999999999999999e-05,1.4e-05
4.8e-05,0.0,1.45e-05
6.4e-05,1.600000000000001e-05,1.5e-05
-9.6e-05,-0.000176,1.55e-05
-4.8e-05,-9.6e-05,1.6e-05
7.999999999999999e-05,4.800000000000003e-05,1.65e-05
9.6e-05,6.400000000000004e-05,1.7e-05
-1.6000000000000003e-05,-6.399999999999998e-05,1.75e-05
-0.000112,-0.000176,1.8e-05
0.0,-1.600000000000001e-05,1.85e-05
7.999999999999999e-05,9.600000000000006e-05,1.9e-05
9.6e-05,9.600000000000006e-05,1.95e-05
-1.6000000000000003e-05,-4.7999999999999974e-05,2e-05
-0.00012800000000000002,-0.00019199999999999998,2.05e-05
-1.6000000000000003e-05,-3.1999999999999965e-05,2.1e-05
-0.000112,-0.00015999999999999999,2.15e-05
0.000128,0.00012799999999999997,2.2e-05
0.00011200000000000001,7.999999999999999e-05,2.25e-05
-3.2000000000000005e-05,-7.999999999999999e-05,2.3e-05
-6.4e-05,-0.00011199999999999996,2.35e-05
-3.2000000000000005e-05,-7.999999999999999e-05,2.4e-05
-1.6000000000000003e-05,-7.999999999999999e-05,2.45e-05
-1.6000000000000003e-05,-6.399999999999998e-05,2.5e-05
-1.6000000000000003e-05,-6.399999999999998e-05,2.55e-05
-1.6000000000000003e-05,-6.399999999999998e-05,2.6e-05
0.0,-4.7999999999999974e-05,2.65e-05
-1.6000000000000003e-05,-6.399999999999998e-05,2.7e-05
-3.2000000000000005e-05,-7.999999999999999e-05,2.75e-05
-1.6000000000000003e-05,-4.7999999999999974e-05,2.8e-05
0.0,-1.600000000000001e-05,2.85e-05
1.5999999999999996e-05,-1.600000000000001e-05,2.9e-05
1.5999999999999996e-05,-1.600000000000001e-05,2.95e-05
-7.999999999999999e-05,-0.00011199999999999996,3e-05
-6.4e-05,-9.6e-05,3.05e-05
4.8e-05,4.800000000000003e-05,3.1e-05
4.8e-05,4.800000000000003e-05,3.15e-05
1.5999999999999996e-05,-1.600000000000001e-05,3.2e-05
-9.6e-05,-0.00014399999999999998,3.25e-05
-3.2000000000000005e-05,-6.399999999999998e-05,3.3e-05
7.999999999999999e-05,7.999999999999999e-05,3.35e-05
4.8e-05,4.800000000000003e-05,3.4e-05
0.0,0.0,3.45e-05
-0.000112,-0.00014399999999999998,3.5e-05
-3.2000000000000005e-05,-1.600000000000001e-05,3.55e-05
-0.000144,-0.000176,3.6e-05
6.4e-05,7.999999999999999e-05,3.65e-05
0.00011200000000000001,0.00014400000000000003,3.7e-05
-1.6000000000000003e-05,-1.600000000000001e-05,3.75e-05
-6.4e-05,-7.999999999999999e-05,3.8e-05
-6.4e-05,-7.999999999999999e-05,3.85e-05
-3.2000000000000005e-05,-4.7999999999999974e-05,3.9e-05
-1.6000000000000003e-05,-3.1999999999999965e-05,3.95e-05
0.0,0.0,4e-05
1.5999999999999996e-05,1.600000000000001e-05,4.05e-05
-3.2000000000000005e-05,-4.7999999999999974e-05,4.1e-05
-3.2000000000000005e-05,-4.7999999999999974e-05,4.15e-05
-1.6000000000000003e-05,-1.600000000000001e-05,4.2e-05
0.0,-1.600000000000001e-05,4.25e-05
-1.6000000000000003e-05,-1.600000000000001e-05,4.3e-05
-3.2000000000000005e-05,-4.7999999999999974e-05,4.35e-05
0.0,1.600000000000001e-05,4.4e-05
-6.4e-05,-6.399999999999998e-05,4.45e-05
-9.6e-05,-9.6e-05,4.5e-05
4.8e-05,6.400000000000004e-05,4.55e-05
4.8e-05,7.999999999999999e-05,4.6e-05
0.0,0.0,4.65e-05
-0.000112,-0.00014399999999999998,4.7e-05
-3.2000000000000005e-05,-3.1999999999999965e-05,4.75e-05
7.999999999999999e-05,0.00011200000000000001,4.8e-05
3.2000000000000005e-05,6.400000000000004e-05,4.85e-05
0.0,1.600000000000001e-05,4.9e-05
-9.6e-05,-9.6e-05,4.95e-05
-3.2000000000000005e-05,-1.600000000000001e-05,5e-05
-0.000144,-0.00015999999999999999,5.05e-05
4.8e-05,9.600000000000006e-05,5.1e-05
0.00015999999999999999,0.000192,5.15e-05
1.5999999999999996e-05,1.600000000000001e-05,5.2e-05
-6.4e-05,-7.999999999999999e-05,5.25e-05
-7.999999999999999e-05,-7.999999999999999e-05,5.3e-05
-3.2000000000000005e-05,-3.1999999999999965e-05,5.35e-05
-1.6000000000000003e-05,-1.600000000000001e-05,5.4e-05
0.0,0.0,5.45e-05
-1.6000000000000003e-05,0.0,5.5e-05
-3.2000000000000005e-05,-3.1999999999999965e-05,5.55e-05
-4.8e-05,-4.7999999999999974e-05,5.6e-05
-1.6000000000000003e-05,-3.1999999999999965e-05,5.65e-05
0.0,0.0,5.7e-05
0.0,0.0,5.75e-05
-3.2000000000000005e-05,-3.1999999999999965e-05,5.8e-05
1.5999999999999996e-05,3.200000000000002e-05,5.85e-05
-6.4e-05,-7.999999999999999e-05,5.9e-05
-4.8e-05,-6.399999999999998e-05,5.95e-05
3.2000000000000005e-05,4.800000000000003e-05,6e-05
4.8e-05,6.400000000000004e-05,6.05e-05
0.0,0.0,6.1e-05
-9.6e-05,-0.00011199999999999996,6.15e-05
-1.6000000000000003e-05,-1.600000000000001e-05,6.2e-05
9.6e-05,0.00011200000000000001,6.25e-05
1.5999999999999996e-05,3.200000000000002e-05,6.3e-05
1.5999999999999996e-05,0.0,6.35e-05
-9.6e-05,-0.00011199999999999996,6.4e-05
0.0,0.0,6.45e-05
-0.000144,-0.000176,6.5e-05
7.999999999999999e-05,7.999999999999999e-05,6.55e-05
0.000144,0.00015999999999999999,6.6e-05
-1.6000000000000003e-05,-6.399999999999998e-05,6.65e-05
-6.4e-05,-9.6e-05,6.7e-05
-6.4e-05,-9.6e-05,6.75e-05
-4.8e-05,-7.999999999999999e-05,6.8e-05
1.5999999999999996e-05,-1.600000000000001e-05,6.85e-05
1.5999999999999996e-05,-3.1999999999999965e-05,6.9e-05
0.0,-4.7999999999999974e-05,6.95e-05
-1.6000000000000003e-05,-4.7999999999999974e-05,7e-05
-1.6000000000000003e-05,-7.999999999999999e-05,7.05e-05
-1.6000000000000003e-05,-7.999999999999999e-05,7.1e-05
1.5999999999999996e-05,-4.7999999999999974e-05,7.15e-05
0.0,-6.399999999999998e-05,7.2e-05
0.0,-6.399999999999998e-05,7.25e-05
1.5999999999999996e-05,-4.7999999999999974e-05,7.3e-05
-6.4e-05,-0.00015999999999999999,7.35e-05
-3.2000000000000005e-05,-0.00014399999999999998,7.4e-05
6.4e-05,-1.600000000000001e-05,7.45e-05
7.999999999999999e-05,-1.600000000000001e-05,7.5e-05
0.0,-0.00011199999999999996,7.55e-05
-7.999999999999999e-05,-0.000208,7.6e-05
0.0,-9.6e-05,7.65e-05
9.6e-05,0.0,7.7e-05
7.999999999999999e-05,-3.1999999999999965e-05,7.75e-05
0.0,-0.00012799999999999997,7.8e-05
-9.6e-05,-0.000224,7.85e-05
-3.2000000000000005e-05,-0.00014399999999999998,7.9e-05
-0.000112,-0.00028799999999999995,7.95e-05
0.000128,0.0,8e-05
0.000128,-3.1999999999999965e-05,8.05e-05
0.0,-0.000208,8.1e-05
-1.6000000000000003e-05,-0.000256,8.15e-05
-1.6000000000000003e-05,-0.000256,8.2e-05
-1.6000000000000003e-05,-0.00028799999999999995,8.25e-05
3.2000000000000005e-05,-0.00023999999999999998,8.3e-05
3.2000000000000005e-05,-0.00023999999999999998,8.35e-05
0.0,-0.00028799999999999995,8.4e-05
1.5999999999999996e-05,-0.000272,8.45e-05
1.5999999999999996e-05,-0.000256,8.5e-05
0.0,-0.000256,8.55e-05
0.0,-0.000224,8.6e-05
1.5999999999999996e-05,-0.00014399999999999998,8.65e-05
4.8e-05,-6.399999999999998e-05,8.7e-05
3.2000000000000005e-05,-3.1999999999999965e-05,8.75e-05
-9.6e-05,-0.00011199999999999996,8.8e-05
-4.8e-05,3.200000000000002e-05,8.85e-05
6.4e-05,0.00023999999999999998,8.9e-05
4.8e-05,0.00031999999999999997,8.95e-05
-6.4e-05,0.00028800000000000006,9e-05
-0.000144,0.00031999999999999997,9.05e-05
-4.8e-05,0.000592,9.1e-05
0.0,0.000816,9.15e-05
-3.2000000000000005e-05,0.000976,9.2e-05
-9.6e-05,0.0011519999999999998,9.25e-05
-0.000224,0.001248,9.3e-05
-0.000176,0.001552,9.35e-05
-0.000272,0.0016479999999999997,9.4e-05
-1.6000000000000003e-05,0.00216,9.45e-05
-6.4e-05,0.002176,9.5e-05
-0.000272,0.001984,9.55e-05
-0.000288,0.001856,9.6e-05
-0.00024,0.0016479999999999997,9.65e-05
-0.000256,0.001248,9.7e-05
-0.00020800000000000001,0.00072,9.75e-05
-0.00020800000000000001,-3.1999999999999965e-05,9.8e-05
-0.00020800000000000001,-0.000976,9.85e-05
-0.000192,-0.002048,9.9e-05
-0.000144,-0.003264,9.95e-05
-7.999999999999999e-05,-0.0046240000000000005,0.0001
-6.4e-05,-0.006112,0.0001005
-4.8e-05,-0.007712,0.000101
-1.6000000000000003e-05,-0.009312,0.0001015
0.000144,-0.010816,0.000102
7.999999999999999e-05,-0.012544,0.0001025
0.00015999999999999999,-0.014128,0.000103
0.00033600000000000004,-0.015504,0.0001035
0.000224,-0.017216,0.000104
-7.999999999999999e-05,-0.019007999999999997,0.0001045
-0.000272,-0.020512,0.000105
-7.999999999999999e-05,-0.021439999999999997,0.0001055
0.00015999999999999999,-0.02216,0.000106
0.000192,-0.022992,0.0001065
9.6e-05,-0.02376,0.000107
-7.999999999999999e-05,-0.024432,0.0001075
-1.6000000000000003e-05,-0.024624,0.000108
-3.2000000000000005e-05,-0.0248,0.0001085
0.000192,-0.024495999999999997,0.000109
0.00033600000000000004,-0.024144,0.0001095
0.000208,-0.023999999999999997,0.00011
0.000128,-0.023696,0.0001105
9.6e-05,-0.0232,0.000111
9.6e-05,-0.022559999999999997,0.0001115
9.6e-05,-0.021824,0.000112
7.999999999999999e-05,-0.021056,0.0001125
0.0,-0.020319999999999998,0.000113
-4.8e-05,-0.019648,0.0001135
-6.4e-05,-0.019039999999999998,0.000114
-6.4e-05,-0.018448,0.0001145
-6.4e-05,-0.018032,0.000115
-6.4e-05,-0.017775999999999997,0.0001155
-1.6000000000000003e-05,-0.017632,0.000116
7.999999999999999e-05,-0.017551999999999998,0.0001165
-1.6000000000000003e-05,-0.017807999999999997,0.000117
-6.4e-05,-0.01808,0.0001175
0.000144,-0.018112,0.000118
0.000208,-0.018416,0.0001185
0.000128,-0.018896,0.000119
-1.6000000000000003e-05,-0.019472,0.0001195
0.0,-0.019823999999999998,0.00012
7.999999999999999e-05,-0.020096,0.0001205
4.8e-05,-0.020544,0.000121
4.8e-05,-0.020863999999999997,0.0001215
-0.000112,-0.021344,0.000122
-0.00012800000000000002,-0.021519999999999997,0.0001225
-0.00015999999999999999,-0.021647999999999997,0.000123
-9.6e-05,-0.021567999999999997,0.0001235
0.00015999999999999999,-0.02112,0.000124
1.5999999999999996e-05,-0.021056,0.0001245
-0.000112,-0.020832,0.000125
-3.2000000000000005e-05,-0.020272,0.0001255
3.2000000000000005e-05,-0.019695999999999998,0.000126
4.8e-05,-0.0192,0.0001265
4.8e-05,-0.018704,0.000127
9.6e-05,-0.018255999999999998,0.0001275
0.00011200000000000001,-0.01792,0.000128
7.999999999999999e-05,-0.017759999999999998,0.0001285
6.4e-05,-0.017679999999999998,0.000129
6.4e-05,-0.017744,0.0001295
0.0,-0.018,0.00013
1.5999999999999996e-05,-0.018288,0.0001305
3.2000000000000005e-05,-0.018639999999999997,0.000131
-7.999999999999999e-05,-0.019184,0.0001315
-0.000144,-0.01968,0.000132
-1.6000000000000003e-05,-0.019919999999999997,0.0001325
0.0,-0.020287999999999997,0.000133
-1.6000000000000003e-05,-0.020592,0.0001335
-0.000112,-0.020895999999999998,0.000134
-6.4e-05,-0.020912,0.0001345
1.5999999999999996e-05,-0.02072,0.000135
6.4e-05,-0.020495999999999997,0.0001355
9.6e-05,-0.020128,0.000136
-3.2000000000000005e-05,-0.019871999999999997,0.0001365
-3.2000000000000005e-05,-0.019407999999999998,0.000137
0.0,-0.018959999999999998,0.0001375
3.2000000000000005e-05,-0.018559999999999997,0.000138
0.000272,-0.018015999999999997,0.0001385
0.00011200000000000001,-0.018063999999999997,0.000139
-4.8e-05,-0.018175999999999998,0.0001395
0.0,-0.018143999999999997,0.00014
3.2000000000000005e-05,-0.018223999999999997,0.0001405
0.0,-0.018511999999999997,0.000141
-3.2000000000000005e-05,-0.018911999999999998,0.0001415
-1.6000000000000003e-05,-0.019312,0.000142
-3.2000000000000005e-05,-0.019808,0.0001425
-6.4e-05,-0.020272,0.000143
-6.4e-05,-0.020592,0.0001435
-4.8e-05,-0.020655999999999997,0.000144
-4.8e-05,-0.020672,0.0001445
-4.8e-05,-0.020575999999999997,0.000145
-3.2000000000000005e-05,-0.020352,0.0001455
-1.6000000000000003e-05,-0.020111999999999998,0.000146
-0.000112,-0.020016,0.0001465
-1.6000000000000003e-05,-0.019648,0.000147
6.4e-05,-0.019215999999999997,0.0001475
3.2000000000000005e-05,-0.018816,0.000148
-1.6000000000000003e-05,-0.018591999999999997,0.0001485
-3.2000000000000005e-05,-0.01832,0.000149
4.8e-05,-0.018143999999999997,0.0001495
9.6e-05,-0.018143999999999997,0.00015
0.00011200000000000001,-0.0184,0.0001505
4.8e-05,-0.018831999999999998,0.000151
-7.999999999999999e-05,-0.019295999999999997,0.0001515
-1.6000000000000003e-05,-0.019472,0.000152
-7.999999999999999e-05,-0.01976,0.0001525
0.000208,-0.01952,0.000153
9.6e-05,-0.019871999999999997,0.0001535
-7.999999999999999e-05,-0.020287999999999997,0.000154
-7.999999999999999e-05,-0.020415999999999997,0.0001545
-4.8e-05,-0.020384,0.000155
-6.4e-05,-0.020304,0.0001555
-4.8e-05,-0.020016,0.000156
-6.4e-05,-0.019648,0.0001565
-3.2000000000000005e-05,-0.019264,0.000157
0.0,-0.018959999999999998,0.0001575
-1.6000000000000003e-05,-0.018879999999999997,0.000158
-1.6000000000000003e-05,-0.018944,0.0001585
1.5999999999999996e-05,-0.019039999999999998,0.000159
6.4e-05,-0.019104,0.0001595
4.8e-05,-0.019264,0.00016
7.999999999999999e-05,-0.019407999999999998,0.0001605
1.5999999999999996e-05,-0.019711999999999997,0.000161
1.5999999999999996e-05,-0.019903999999999998,0.0001615
0.000144,-0.019951999999999998,0.000162
0.00015999999999999999,-0.020176,0.0001625
9.6e-05,-0.020479999999999998,0.000163
-1.6000000000000003e-05,-0.020768,0.0001635
1.5999999999999996e-05,-0.02072,0.000164
9.6e-05,-0.020432,0.0001645
6.4e-05,-0.020287999999999997,0.000165
6.4e-05,-0.020079999999999997,0.0001655
-7.999999999999999e-05,-0.020016,0.000166
-7.999999999999999e-05,-0.019743999999999998,0.0001665
-0.000112,-0.019583999999999997,0.000167
3.2000000000000005e-05,-0.019327999999999998,0.0001675
0.000208,-0.01928,0.000168
3.2000000000000005e-05,-0.019615999999999998,0.0001685
-4.8e-05,-0.019776,0.000169
1.5999999999999996e-05,-0.019743999999999998,0.0001695
6.4e-05,-0.019823999999999998,0.00017
9.6e-05,-0.019936,0.0001705
7.999999999999999e-05,-0.020079999999999997,0.000171
7.999999999999999e-05,-0.020191999999999998,0.0001715
9.6e-05,-0.020352,0.000172
0.00011200000000000001,-0.020544,0.0001725
7.999999999999999e-05,-0.020687999999999998,0.000173
6.4e-05,-0.020624,0.0001735
4.8e-05,-0.020399999999999998,0.000174
6.4e-05,-0.020079999999999997,0.0001745
0.000128,-0.019791999999999997,0.000175
1.5999999999999996e-05,-0.01976,0.0001755
-0.000112,-0.019791999999999997,0.000176
3.2000000000000005e-05,-0.0196,0.0001765
9.6e-05,-0.01952,0.000177
3.2000000000000005e-05,-0.0196,0.0001775
-6.4e-05,-0.019728,0.000178
-7.999999999999999e-05,-0.019776,0.0001785
4.8e-05,-0.019663999999999997,0.000179
9.6e-05,-0.019648,0.0001795
7.999999999999999e-05,-0.019743999999999998,0.00018
-4.8e-05,-0.020048,0.0001805
-7.999999999999999e-05,-0.020207999999999997,0.000181
-1.6000000000000003e-05,-0.020256,0.0001815
-4.8e-05,-0.020224,0.000182
0.000192,-0.019776,0.0001825
6.4e-05,-0.019743999999999998,0.000183
-1.6000000000000003e-05,-0.019631999999999997,0.0001835
-3.2000000000000005e-05,-0.019375999999999997,0.000184
-3.2000000000000005e-05,-0.019087999999999997,0.0001845
-1.6000000000000003e-05,-0.018864,0.000185
3.2000000000000005e-05,-0.018719999999999997,0.0001855
3.2000000000000005e-05,-0.018799999999999997,0.000186
-1.6000000000000003e-05,-0.018976,0.0001865
-3.2000000000000005e-05,-0.019087999999999997,0.000187
0.0,-0.019087999999999997,0.0001875
1.5999999999999996e-05,-0.019152,0.000188
-1.6000000000000003e-05,-0.01928,0.0001885
-4.8e-05,-0.019423999999999997,0.000189
0.0,-0.01952,0.0001895
1.5999999999999996e-05,-0.019631999999999997,0.00019
-9.6e-05,-0.019791999999999997,0.0001905
-4.8e-05,-0.0196,0.000191
4.8e-05,-0.019264,0.0001915
1.5999999999999996e-05,-0.019056,0.000192
-3.2000000000000005e-05,-0.018864,0.0001925
-6.4e-05,-0.018576,0.000193
0.0,-0.01816,0.0001935
7.999999999999999e-05,-0.017775999999999997,0.000194
0.00011200000000000001,-0.017519999999999997,0.0001945
6.4e-05,-0.017424,0.000195
-4.8e-05,-0.017439999999999997,0.0001955
3.2000000000000005e-05,-0.017263999999999998,0.000196
-4.8e-05,-0.017311999999999998,0.0001965
0.00024,-0.016703999999999997,0.000197
0.000208,-0.016336,0.0001975
1.5999999999999996e-05,-0.015903999999999998,0.000198
-4.8e-05,-0.01528,0.0001985
-1.6000000000000003e-05,-0.01456,0.000199
0.0,-0.014016,0.0001995
1.5999999999999996e-05,-0.013504,0.0002
1.5999999999999996e-05,-0.012992,0.0002005
-1.6000000000000003e-05,-0.012272,0.000201
-4.8e-05,-0.01136,0.0002015
0.0,-0.010304,0.000202
0.0,-0.009488,0.0002025
-3.2000000000000005e-05,-0.00888,0.000203
-1.6000000000000003e-05,-0.008288,0.0002035
4.8e-05,-0.007664,0.000204
9.6e-05,-0.006976,0.0002045
-3.2000000000000005e-05,-0.006448,0.000205
-4.8e-05,-0.00576,0.0002055
7.999999999999999e-05,-0.004896,0.000206
9.6e-05,-0.004176,0.0002065
3.2000000000000005e-05,-0.003536,0.000207
-7.999999999999999e-05,-0.002944,0.0002075
-3.2000000000000005e-05,-0.00208,0.000208
4.8e-05,-0.001168,0.0002085
3.2000000000000005e-05,-0.000592,0.000209
-1.6000000000000003e-05,-0.00011199999999999996,0.0002095
-0.00012800000000000002,0.00015999999999999999,0.00021
-7.999999999999999e-05,0.0005600000000000001,0.0002105
-0.00015999999999999999,0.00064,0.000211
6.4e-05,0.0009440000000000001,0.0002115
0.00015999999999999999,0.001056,0.000212
-3.2000000000000005e-05,0.000832,0.0002125
-9.6e-05,0.000752,0.000213
-4.8e-05,0.000672,0.0002135
-1.6000000000000003e-05,0.000464,0.000214
0.0,0.00017600000000000005,0.0002145
0.0,-0.000208,0.000215
3.2000000000000005e-05,-0.000512,0.0002155
3.2000000000000005e-05,-0.000688,0.000216
1.5999999999999996e-05,-0.000656,0.0002165
-1.6000000000000003e-05,-0.000544,0.000217
-1.6000000000000003e-05,-0.000416,0.0002175
1.5999999999999996e-05,-0.000416,0.000218
0.0,-0.000592,0.0002185
4.8e-05,-0.0007199999999999999,0.000219
-6.4e-05,-0.0011359999999999999,0.0002195
-6.4e-05,-0.0014399999999999999,0.00022
4.8e-05,-0.001568,0.0002205
0.00011200000000000001,-0.0016319999999999998,0.000221
4.8e-05,-0.001824,0.0002215
-9.6e-05,-0.00208,0.000222
-6.4e-05,-0.00208,0.0002225
7.999999999999999e-05,-0.0019199999999999998,0.000223
9.6e-05,-0.0019199999999999998,0.0002235
4.8e-05,-0.001968,0.000224
-0.000144,-0.002112,0.0002245
-6.4e-05,-0.00184,0.000225
-7.999999999999999e-05,-0.001584,0.0002255
1.5999999999999996e-05,-0.0012000000000000001,0.000226
0.000144,-0.000848,0.0002265
1.5999999999999996e-05,-0.0008320000000000001,0.000227
-4.8e-05,-0.0007520000000000001,0.0002275
-1.6000000000000003e-05,-0.000544,0.000228
3.2000000000000005e-05,-0.000448,0.0002285
4.8e-05,-0.000544,0.000229
4.8e-05,-0.000672,0.0002295
4.8e-05,-0.000864,0.00023
4.8e-05,-0.00112,0.0002305
6.4e-05,-0.0012799999999999999,0.000231
6.4e-05,-0.0013440000000000001,0.0002315
1.5999999999999996e-05,-0.0013440000000000001,0.000232
1.5999999999999996e-05,-0.001264,0.0002325
1.5999999999999996e-05,-0.00112,0.000233
4.8e-05,-0.0009919999999999998,0.0002335
-3.2000000000000005e-05,-0.001104,0.000234
-0.00015999999999999999,-0.00136,0.0002345
0.0,-0.001264,0.000235
9.6e-05,-0.0012799999999999999,0.0002355
1.5999999999999996e-05,-0.0014719999999999998,0.000236
-0.00012800000000000002,-0.001568,0.0002365
-0.000112,-0.0014880000000000002,0.000237
4.8e-05,-0.001152,0.0002375
9.6e-05,-0.001104,0.000238
7.999999999999999e-05,-0.001168,0.0002385
-6.4e-05,-0.0015040000000000001,0.000239
-7.999999999999999e-05,-0.00152,0.0002395
0.0,-0.001376,0.00024
-6.4e-05,-0.001424,0.0002405
0.000208,-0.001008,0.000241
0.00011200000000000001,-0.000944,0.0002415
-4.8e-05,-0.000896,0.000242
-6.4e-05,-0.000784,0.0002425
0.0,-0.000608,0.000243
4.8e-05,-0.0006399999999999999,0.0002435
3.2000000000000005e-05,-0.0008320000000000001,0.000244
0.0,-0.00112,0.0002445
1.5999999999999996e-05,-0.0012799999999999999,0.000245
3.2000000000000005e-05,-0.001408,0.0002455
3.2000000000000005e-05,-0.0014880000000000002,0.000246
0.0,-0.001536,0.0002465
-3.2000000000000005e-05,-0.0016159999999999998,0.000247
1.5999999999999996e-05,-0.001584,0.0002475
4.8e-05,-0.0014880000000000002,0.000248
3.2000000000000005e-05,-0.0014719999999999998,0.0002485
-0.000144,-0.001728,0.000249
-4.8e-05,-0.001584,0.0002495
7.999999999999999e-05,-0.001328,0.00025
7.999999999999999e-05,-0.001184,0.0002505
-6.4e-05,-0.001232,0.000251
-9.6e-05,-0.001168,0.0002515
1.5999999999999996e-05,-0.0008799999999999999,0.000252
6.4e-05,-0.000656,0.0002525
6.4e-05,-0.000608,0.000253
3.2000000000000005e-05,-0.000656,0.0002535
-4.8e-05,-0.000784,0.000254
-1.6000000000000003e-05,-0.000768,0.0002545
-0.00015999999999999999,-0.001008,0.000255
0.000128,-0.0007199999999999999,0.0002555
0.000176,-0.000736,0.000256
-3.2000000000000005e-05,-0.0009919999999999998,0.0002565
-9.6e-05,-0.00112,0.000257
-4.8e-05,-0.001088,0.0002575
-1.6000000000000003e-05,-0.00096,0.000258
0.0,-0.0008320000000000001,0.0002585
0.0,-0.000768,0.000259
-3.2000000000000005e-05,-0.000816,0.0002595
-3.2000000000000005e-05,-0.0008799999999999999,0.00026
1.5999999999999996e-05,-0.0010400000000000001,0.0002605
0.0,-0.001184,0.000261
-3.2000000000000005e-05,-0.001168,0.0002615
0.0,-0.0008320000000000001,0.000262
1.5999999999999996e-05,-0.000416,0.0002625
3.2000000000000005e-05,-0.00015999999999999999,0.000263
-4.8e-05,-0.000176,0.0002635
-0.000112,-0.000368,0.000264
3.2000000000000005e-05,-0.00047999999999999996,0.0002645
4.8e-05,-0.000688,0.000265
0.0,-0.000864,0.0002655
-6.4e-05,-0.000896,0.000266
-4.8e-05,-0.0007520000000000001,0.0002665
6.4e-05,-0.000608,0.000267
4.8e-05,-0.0006399999999999999,0.0002675
4.8e-05,-0.000736,0.000268
-4.8e-05,-0.0009919999999999998,0.0002685
-6.4e-05,-0.00112,0.000269
-6.4e-05,-0.001264,0.0002695
-3.2000000000000005e-05,-0.001248,0.00027
0.000208,-0.000896,0.0002705
6.4e-05,-0.0009919999999999998,0.000271
-6.4e-05,-0.0009919999999999998,0.0002715
-9.6e-05,-0.000816,0.000272
-4.8e-05,-0.000528,0.0002725
1.5999999999999996e-05,-0.000368,0.000273
1.5999999999999996e-05,-0.000416,0.0002735
-4.8e-05,-0.000544,0.000274
-4.8e-05,-0.000576,0.0002745
0.0,-0.00056,0.000275
3.2000000000000005e-05,-0.00056,0.0002755
0.0,-0.000608,0.000276
-1.6000000000000003e-05,-0.000672,0.0002765
1.5999999999999996e-05,-0.000688,0.000277
3.2000000000000005e-05,-0.000768,0.0002775
1.5999999999999996e-05,-0.000864,0.000278
-0.00012800000000000002,-0.001104,0.0002785
-1.6000000000000003e-05,-0.001008,0.000279
0.00011200000000000001,-0.000928,0.0002795
4.8e-05,-0.001104,0.00028
-7.999999999999999e-05,-0.0013440000000000001,0.0002805
-7.999999999999999e-05,-0.0012959999999999998,0.000281
4.8e-05,-0.001008,0.0002815
6.4e-05,-0.000896,0.000282
4.8e-05,-0.000704,0.0002825
-6.4e-05,-0.000704,0.000283
-0.00012800000000000002,-0.000704,0.0002835
-1.6000000000000003e-05,-0.000592,0.000284
-7.999999999999999e-05,-0.000784,0.0002845
0.000128,-0.000608,0.000285
6.4e-05,-0.000688,0.0002855
-3.2000000000000005e-05,-0.000736,0.000286
-6.4e-05,-0.0006399999999999999,0.0002865
-6.4e-05,-0.0007199999999999999,0.000287
-4.8e-05,-0.0007999999999999999,0.0002875
1.5999999999999996e-05,-0.000848,0.000288
3.2000000000000005e-05,-0.001008,0.0002885
-1.6000000000000003e-05,-0.001152,0.000289
-1.6000000000000003e-05,-0.001168,0.0002895
-1.6000000000000003e-05,-0.0009919999999999998,0.00029
0.0,-0.0007999999999999999,0.0002905
-1.6000000000000003e-05,-0.000656,0.000291
-1.6000000000000003e-05,-0.000528,0.0002915
1.5999999999999996e-05,-0.000464,0.000292
0.0,-0.000464,0.0002925
-0.000144,-0.000656,0.000293
-4.8e-05,-0.000512,0.0002935
4.8e-05,-0.000384,0.000294
1.5999999999999996e-05,-0.000352,0.0002945
-9.6e-05,-0.000432,0.000295
-0.00012800000000000002,-0.000464,0.0002955
0.0,-0.000384,0.000296
3.2000000000000005e-05,-0.000512,0.0002965
3.2000000000000005e-05,-0.000688,0.000297
0.0,-0.000848,0.0002975
-9.6e-05,-0.0009919999999999998,0.000298
-3.2000000000000005e-05,-0.0008320000000000001,0.0002985
-0.000144,-0.00096,0.000299
0.000144,-0.00056,0.0002995
7.999999999999999e-05,-0.000512,0.0003
-6.4e-05,-0.000512,0.0003005
-7.999999999999999e-05,-0.000416,0.000301
-6.4e-05,-0.000352,0.0003015
-1.6000000000000003e-05,-0.00028799999999999995,0.000302
0.0,-0.00023999999999999998,0.0003025
0.0,-0.000224,0.000303
-1.6000000000000003e-05,-0.00023999999999999998,0.0003035
-3.2000000000000005e-05,-0.000256,0.000304
3.2000000000000005e-05,-0.000224,0.0003045
-1.6000000000000003e-05,-0.000336,0.000305
-4.8e-05,-0.000368,0.0003055
-1.6000000000000003e-05,-0.000336,0.000306
4.8e-05,-0.000304,0.0003065
1.5999999999999996e-05,-0.000224,0.000307
-0.000112,-0.00023999999999999998,0.0003075
-4.8e-05,-6.399999999999998e-05,0.000308
3.2000000000000005e-05,9.600000000000006e-05,0.0003085
3.2000000000000005e-05,0.00011200000000000001,0.000309
-6.4e-05,7.999999999999999e-05,0.0003095
-0.00012800000000000002,9.600000000000006e-05,0.00031
-4.8e-05,0.00028800000000000006,0.0003105
1.5999999999999996e-05,0.00039999999999999996,0.000311
6.4e-05,0.00039999999999999996,0.0003115
-1.6000000000000003e-05,0.00031999999999999997,0.000312
-0.000112,0.00025600000000000004,0.0003125
-4.8e-05,0.00031999999999999997,0.000313
-0.000112,6.400000000000004e-05,0.0003135
0.000176,0.00033600000000000004,0.000314
0.00011200000000000001,0.00015999999999999999,0.0003145
-4.8e-05,-0.00012799999999999997,0.000315
-6.4e-05,-0.00019199999999999998,0.0003155
-4.8e-05,-0.000224,0.000316
-1.6000000000000003e-05,-0.00023999999999999998,0.0003165
1.5999999999999996e-05,-0.00023999999999999998,0.000317
1.5999999999999996e-05,-0.000208,0.0003175
-1.6000000000000003e-05,-0.00012799999999999997,0.000318
-1.6000000000000003e-05,-1.600000000000001e-05,0.0003185
0.0,4.800000000000003e-05,0.000319
1.5999999999999996e-05,4.800000000000003e-05,0.0003195
1.5999999999999996e-05,-1.600000000000001e-05,0.00032
-1.6000000000000003e-05,-0.00012799999999999997,0.0003205
1.5999999999999996e-05,-0.00015999999999999999,0.000321
6.4e-05,-0.00015999999999999999,0.0003215
-6.4e-05,-0.000352,0.000322
-3.2000000000000005e-05,-0.00028799999999999995,0.0003225
4.8e-05,-0.00014399999999999998,0.000323
7.999999999999999e-05,-9.6e-05,0.0003235
-3.2000000000000005e-05,-0.000272,0.000324
-9.6e-05,-0.000384,0.0003245
-1.6000000000000003e-05,-0.000384,0.000325
6.4e-05,-0.00039999999999999996,0.0003255
6.4e-05,-0.000464,0.000326
0.0,-0.000528,0.0003265
-0.000112,-0.000544,0.000327
-4.8e-05,-0.000304,0.0003275
-0.000144,-0.000208,0.000328
0.00015999999999999999,0.000352,0.0003285
9.6e-05,0.000384,0.000329
-3.2000000000000005e-05,0.00020800000000000007,0.0003295
-6.4e-05,0.00015999999999999999,0.00033
-1.6000000000000003e-05,0.00015999999999999999,0.0003305
-1.6000000000000003e-05,9.600000000000006e-05,0.000331
0.0,-3.1999999999999965e-05,0.0003315
1.5999999999999996e-05,-0.00012799999999999997,0.000332
1.5999999999999996e-05,-0.000256,0.0003325
0.0,-0.000352,0.000333
-1.6000000000000003e-05,-0.000336,0.0003335
0.0,-0.000256,0.000334
3.2000000000000005e-05,-0.00014399999999999998,0.0003345
0.0,-6.399999999999998e-05,0.000335
0.0,0.00011200000000000001,0.0003355
3.2000000000000005e-05,0.000272,0.000336
-6.4e-05,0.00020800000000000007,0.0003365
-7.999999999999999e-05,0.00017600000000000005,0.000337
1.5999999999999996e-05,0.00017600000000000005,0.0003375
1.5999999999999996e-05,3.200000000000002e-05,0.000338
-3.2000000000000005e-05,-0.00015999999999999999,0.0003385
-9.6e-05,-0.00031999999999999997,0.000339
-1.6000000000000003e-05,-0.000272,0.0003395
6.4e-05,-0.00028799999999999995,0.00034
6.4e-05,-0.000336,0.0003405
0.0,-0.000352,0.000341
-0.000112,-0.00039999999999999996,0.0003415
-4.8e-05,-0.000224,0.000342
-0.000144,-0.000304,0.0003425
9.6e-05,7.999999999999999e-05,0.000343
0.00011200000000000001,0.00011200000000000001,0.0003435
-3.2000000000000005e-05,-4.7999999999999974e-05,0.000344
-4.8e-05,-1.600000000000001e-05,0.0003445
-6.4e-05,4.800000000000003e-05,0.000345
-3.2000000000000005e-05,0.000192,0.0003455
1.5999999999999996e-05,0.00033600000000000004,0.000346
0.0,0.00033600000000000004,0.0003465
-3.2000000000000005e-05,0.00017600000000000005,0.000347
-1.6000000000000003e-05,-1.600000000000001e-05,0.0003475
0.0,-0.00012799999999999997,0.000348
-1.6000000000000003e-05,-0.000256,0.0003485
-4.8e-05,-0.00031999999999999997,0.000349
-3.2000000000000005e-05,-0.000256,0.0003495
-1.6000000000000003e-05,-0.00012799999999999997,0.00035
3.2000000000000005e-05,-1.600000000000001e-05,0.0003505
-7.999999999999999e-05,-0.00014399999999999998,0.000351
-0.00015999999999999999,-0.000224,0.0003515
0.0,-9.6e-05,0.000352
6.4e-05,-0.00012799999999999997,0.0003525
0.0,-0.000352,0.000353
-0.000112,-0.00056,0.0003535
-7.999999999999999e-05,-0.000416,0.000354
3.2000000000000005e-05,-9.6e-05,0.0003545
6.4e-05,0.00011200000000000001,0.000355
1.5999999999999996e-05,0.00022400000000000002,0.0003555
-0.00015999999999999999,6.400000000000004e-05,0.000356
-9.6e-05,0.00012799999999999997,0.0003565
-0.000112,-1.600000000000001e-05,0.000357
-3.2000000000000005e-05,-4.7999999999999974e-05,0.0003575
0.000128,1.600000000000001e-05,0.000358
-1.6000000000000003e-05,-0.00019199999999999998,0.0003585
-9.6e-05,-0.000176,0.000359
-4.8e-05,9.600000000000006e-05,0.0003595
-3.2000000000000005e-05,0.000272,0.00036
-6.4e-05,0.00028800000000000006,0.0003605
-6.4e-05,0.00023999999999999998,0.000361
-1.6000000000000003e-05,7.999999999999999e-05,0.0003615
0.0,-9.6e-05,0.000362
-1.6000000000000003e-05,-0.000304,0.0003625
-3.2000000000000005e-05,-0.000464,0.000363
0.0,-0.000512,0.0003635
0.0,-0.000416,0.000364
-1.6000000000000003e-05,-0.000224,0.0003645
1.5999999999999996e-05,7.999999999999999e-05,0.000365
-3.2000000000000005e-05,0.00017600000000000005,0.0003655
-0.00012800000000000002,0.00017600000000000005,0.000366
-1.6000000000000003e-05,0.000304,0.0003665
4.8e-05,0.000304,0.000367
3.2000000000000005e-05,0.00017600000000000005,0.0003675
-7.999999999999999e-05,-7.999999999999999e-05,0.000368
-9.6e-05,-0.000256,0.0003685
4.8e-05,-0.00014399999999999998,0.000369
9.6e-05,-7.999999999999999e-05,0.0003695
6.4e-05,-3.1999999999999965e-05,0.00037
-9.6e-05,-0.00014399999999999998,0.0003705
-0.000112,-9.6e-05,0.000371
-3.2000000000000005e-05,-1.600000000000001e-05,0.0003715
-9.6e-05,-0.00014399999999999998,0.000372
0.000176,7.999999999999999e-05,0.0003725
6.4e-05,-0.00015999999999999999,0.000373
-9.6e-05,-0.00039999999999999996,0.0003735
-4.8e-05,-0.000384,0.000374
1.5999999999999996e-05,-0.00028799999999999995,0.0003745
-1.6000000000000003e-05,-0.000224,0.000375
-3.2000000000000005e-05,-6.399999999999998e-05,0.0003755
0.0,0.00011200000000000001,0.000376
1.5999999999999996e-05,0.000192,0.0003765
0.0,0.00022400000000000002,0.000377
-4.8e-05,0.00020800000000000007,0.0003775
-1.6000000000000003e-05,0.00025600000000000004,0.000378
0.0,0.00028800000000000006,0.0003785
-1.6000000000000003e-05,0.00025600000000000004,0.000379
-1.6000000000000003e-05,0.000272,0.0003795
1.5999999999999996e-05,0.00025600000000000004,0.00038
-7.999999999999999e-05,6.400000000000004e-05,0.0003805
-4.8e-05,1.600000000000001e-05,0.000381
3.2000000000000005e-05,-1.600000000000001e-05,0.0003815
7.999999999999999e-05,-0.00015999999999999999,0.000382
-3.2000000000000005e-05,-0.00039999999999999996,0.0003825
-0.000112,-0.000496,0.000383
0.0,-0.00028799999999999995,0.0003835
4.8e-05,-0.00011199999999999996,0.000384
4.8e-05,-4.7999999999999974e-05,0.0003845
-3.2000000000000005e-05,-4.7999999999999974e-05,0.000385
-0.00012800000000000002,-4.7999999999999974e-05,0.0003855
-4.8e-05,0.00012799999999999997,0.000386
-0.00012800000000000002,1.600000000000001e-05,0.0003865
0.000128,0.00033600000000000004,0.000387
0.00011200000000000001,0.00028800000000000006,0.0003875
-4.8e-05,0.00012799999999999997,0.000388
-7.999999999999999e-05,0.00011200000000000001,0.0003885
-6.4e-05,0.000192,0.000389
-3.2000000000000005e-05,0.000272,0.0003895
0.0,0.000272,0.00039
-1.6000000000000003e-05,0.00023999999999999998,0.0003905
-3.2000000000000005e-05,0.00017600000000000005,0.000391
-1.6000000000000003e-05,0.00020800000000000007,0.0003915
1.5999999999999996e-05,0.00023999999999999998,0.000392
1.5999999999999996e-05,0.00023999999999999998,0.0003925
-1.6000000000000003e-05,0.00022400000000000002,0.000393
-3.2000000000000005e-05,0.000272,0.0003935
-3.2000000000000005e-05,0.000272,0.000394
4.8e-05,0.000272,0.0003945
-4.8e-05,6.400000000000004e-05,0.000395
-0.00015999999999999999,-0.00014399999999999998,0.0003955
-1.6000000000000003e-05,6.400000000000004e-05,0.000396
6.4e-05,0.00023999999999999998,0.0003965
3.2000000000000005e-05,0.00028800000000000006,0.000397
-0.00012800000000000002,0.00025600000000000004,0.0003975
-0.00012800000000000002,0.00028800000000000006,0.000398
0.0,0.000528,0.0003985
3.2000000000000005e-05,0.0005600000000000001,0.000399
1.5999999999999996e-05,0.000496,0.0003995
-0.00015999999999999999,0.00014400000000000003,0.0004
-0.000144,3.200000000000002e-05,0.0004005
-0.000112,-1.600000000000001e-05,0.000401
-9.6e-05,-4.7999999999999974e-05,0.0004015
0.00011200000000000001,0.000272,0.000402
-3.2000000000000005e-05,0.00017600000000000005,0.0004025
-0.00012800000000000002,0.00015999999999999999,0.000403
-0.000144,0.00023999999999999998,0.0004035
-0.000112,0.00031999999999999997,0.000404
-9.6e-05,0.00033600000000000004,0.0004045
-6.4e-05,0.00033600000000000004,0.000405
-6.4e-05,0.00020800000000000007,0.0004055
-6.4e-05,0.00012799999999999997,0.000406
0.0,0.00017600000000000005,0.0004065
1.5999999999999996e-05,0.00023999999999999998,0.000407
1.5999999999999996e-05,0.00028800000000000006,0.0004075
0.0,0.00039999999999999996,0.000408
4.8e-05,0.000544,0.0004085
9.6e-05,0.0006079999999999999,0.000409
0.000128,0.0006079999999999999,0.0004095
0.0,0.00031999999999999997,0.00041
0.00011200000000000001,0.00031999999999999997,0.0004105
0.00025600000000000004,0.000384,0.000411
0.000272,0.00025600000000000004,0.0004115
0.000176,9.600000000000006e-05,0.000412
9.6e-05,4.800000000000003e-05,0.0004125
0.000208,0.00033600000000000004,0.000413
0.00025600000000000004,0.000464,0.0004135
0.000192,0.000464,0.000414
3.2000000000000005e-05,0.000384,0.0004145
-0.000144,0.00028800000000000006,0.000415
-0.000176,0.00041600000000000003,0.0004155
-0.00047999999999999996,0.00025600000000000004,0.000416
-0.000432,0.000528,0.0004165
-0.000704,0.000512,0.000417
-0.001152,0.00031999999999999997,0.0004175
-0.0015040000000000001,0.00025600000000000004,0.000418
-0.0018720000000000002,0.00015999999999999999,0.0004185
-0.0022879999999999997,6.400000000000004e-05,0.000419
-0.002672,3.200000000000002e-05,0.0004195
-0.003136,0.0,0.00042
-0.003632,-3.1999999999999965e-05,0.0004205
-0.004112,0.0,0.000421
-0.004512,0.000192,0.0004215
-0.0049440000000000005,0.00028800000000000006,0.000422
-0.005392,0.00031999999999999997,0.0004225
-0.005776,0.00033600000000000004,0.000423
-0.006128000000000001,0.000272,0.0004235
-0.006304000000000001,0.00025600000000000004,0.000424
-0.006608,1.600000000000001e-05,0.0004245
-0.006880000000000001,-0.00014399999999999998,0.000425
-0.006896,-1.600000000000001e-05,0.0004255
-0.006912000000000001,0.00012799999999999997,0.000426
-0.0069440000000000005,0.00022400000000000002,0.0004265
-0.007072,0.00020800000000000007,0.000427
-0.007056000000000001,0.00028800000000000006,0.0004275
-0.006848,0.00048000000000000007,0.000428
-0.006736000000000001,0.000496,0.0004285
-0.00664,0.000384,0.000429
-0.00672,6.400000000000004e-05,0.0004295
-0.006608,4.800000000000003e-05,0.00043
-0.006512,4.800000000000003e-05,0.0004305
-0.0064,0.00015999999999999999,0.000431
-0.00624,0.00039999999999999996,0.0004315
-0.006384,0.00036800000000000005,0.000432
-0.0064800000000000005,0.000384,0.0004325
-0.006512,0.000432,0.000433
-0.006608,0.000432,0.0004335
-0.006688,0.00048000000000000007,0.000434
-0.0068000000000000005,0.000464,0.0004345
-0.006928,0.00039999999999999996,0.000435
-0.0070880000000000006,0.00031999999999999997,0.0004355
-0.007232000000000001,0.000272,0.000436
-0.007344000000000001,0.00028800000000000006,0.0004365
-0.0074080000000000005,0.000304,0.000437
-0.007472,0.00031999999999999997,0.0004375
-0.007536,0.00025600000000000004,0.000438
-0.007488000000000001,0.00031999999999999997,0.0004385
-0.007472,0.00025600000000000004,0.000439
-0.007536,7.999999999999999e-05,0.0004395
-0.007392,0.00014400000000000003,0.00044
-0.007200000000000001,0.00022400000000000002,0.0004405
-0.007152,0.00023999999999999998,0.000441
-0.007200000000000001,0.00015999999999999999,0.0004415
-0.007216,0.00011200000000000001,0.000442
-0.0071200000000000005,0.00025600000000000004,0.0004425
-0.007056000000000001,0.00036800000000000005,0.000443
-0.007136,0.000304,0.0004435
-0.007328,6.400000000000004e-05,0.000444
-0.007472,0.0,0.0004445
-0.007472,0.00022400000000000002,0.000445
-0.00776,9.600000000000006e-05,0.0004455
-0.007712,0.00041600000000000003,0.000446
-0.007856,0.00044800000000000005,0.0004465
-0.008048,0.00039999999999999996,0.000447
-0.008192,0.000432,0.0004475
-0.008239999999999999,0.000464,0.000448
-0.008223999999999999,0.000464,0.0004485
-0.008128,0.00044800000000000005,0.000449
-0.008064,0.000384,0.0004495
-0.008064,0.000272,0.00045
-0.008048,0.00022400000000000002,0.0004505
-0.007968,0.00028800000000000006,0.000451
-0.007871999999999999,0.00028800000000000006,0.0004515
-0.007856,0.00023999999999999998,0.000452
-0.00784,0.00020800000000000007,0.0004525
-0.007871999999999999,0.000192,0.000453
-0.007856,0.00023999999999999998,0.0004535
-0.008,0.00015999999999999999,0.000454
-0.008176,9.600000000000006e-05,0.0004545
-0.008176,0.000304,0.000455
-0.008208,0.00041600000000000003,0.0004555
-0.00832,0.00039999999999999996,0.000456
-0.008496,0.00025600000000000004,0.0004565
-0.008527999999999999,0.000272,0.000457
-0.008432,0.00036800000000000005,0.0004575
-0.008447999999999999,0.00028800000000000006,0.000458
-0.008416,0.000272,0.0004585
-0.008447999999999999,9.600000000000006e-05,0.000459
-0.008352,0.00014400000000000003,0.0004595
-0.008352,0.00012799999999999997,0.00046
-0.008272,0.000272,0.0004605
-0.008095999999999999,0.00048000000000000007,0.000461
-0.008256,0.00023999999999999998,0.0004615
-0.00832,0.00012799999999999997,0.000462
-0.00832,0.00014400000000000003,0.0004625
-0.0084,0.00017600000000000005,0.000463
-0.00848,0.00023999999999999998,0.0004635
-0.008591999999999999,0.00028800000000000006,0.000464
-0.00864,0.00028800000000000006,0.0004645
-0.008719999999999999,0.000272,0.000465
-0.008752,0.00025600000000000004,0.0004655
-0.008768,0.00020800000000000007,0.000466
-0.008752,0.00015999999999999999,0.0004665
-0.008752,1.600000000000001e-05,0.000467
-0.008688,-4.7999999999999974e-05,0.0004675
-0.00856,0.0,0.000468
-0.008624,-4.7999999999999974e-05,0.0004685
-0.008735999999999999,-9.6e-05,0.000469
-0.008608,0.00017600000000000005,0.0004695
-0.008496,0.00041600000000000003,0.00047
-0.008544,0.00039999999999999996,0.0004705
-0.008735999999999999,0.000192,0.000471
-0.008816,0.00017600000000000005,0.0004715
-0.008752,0.000272,0.000472
-0.008784,0.00022400000000000002,0.0004725
-0.008879999999999999,0.00012799999999999997,0.000473
-0.009087999999999999,-4.7999999999999974e-05,0.0004735
-0.009167999999999999,-1.600000000000001e-05,0.000474
-0.009087999999999999,0.00015999999999999999,0.0004745
-0.009167999999999999,7.999999999999999e-05,0.000475
-0.008896,0.00039999999999999996,0.0004755
-0.008943999999999999,0.00022400000000000002,0.000476
-0.009007999999999999,3.200000000000002e-05,0.0004765
-0.009007999999999999,-1.600000000000001e-05,0.000477
-0.009023999999999999,-3.1999999999999965e-05,0.0004775
-0.009007999999999999,-1.600000000000001e-05,0.000478
-0.008976,0.00012799999999999997,0.0004785
-0.008976,0.00025600000000000004,0.000479
-0.00904,0.00033600000000000004,0.0004795
-0.009104,0.00041600000000000003,0.00048
-0.009167999999999999,0.000464,0.0004805
-0.009248,0.00041600000000000003,0.000481
-0.009328,0.00025600000000000004,0.0004815
-0.00936,0.00014400000000000003,0.000482
-0.009328,7.999999999999999e-05,0.0004825
-0.009344,3.200000000000002e-05,0.000483
-0.009504,-0.00014399999999999998,0.0004835
-0.009472,-1.600000000000001e-05,0.000484
-0.009311999999999999,0.00031999999999999997,0.0004845
-0.009295999999999999,0.00039999999999999996,0.000485
-0.009392,0.000352,0.0004855
-0.009519999999999999,0.00020800000000000007,0.000486
-0.009439999999999999,0.000272,0.0004865
-0.00936,0.00033600000000000004,0.000487
-0.009375999999999999,0.000272,0.0004875
-0.009488,0.00015999999999999999,0.000488
-0.009663999999999999,1.600000000000001e-05,0.0004885
-0.009647999999999999,0.000192,0.000489
-0.009776,0.00014400000000000003,0.0004895
-0.009583999999999999,0.000464,0.00049
-0.009552,0.00048000000000000007,0.0004905
-0.009712,0.00025600000000000004,0.000491
-0.009776,0.00014400000000000003,0.0004915
-0.009727999999999999,0.00014400000000000003,0.000492
-0.00968,0.00017600000000000005,0.0004925
-0.00968,0.00017600000000000005,0.000493
-0.009632,0.00028800000000000006,0.0004935
-0.009632,0.00036800000000000005,0.000494
-0.009712,0.00041600000000000003,0.0004945
-0.009744,0.000464,0.000495
-0.009727999999999999,0.000512,0.0004955
-0.009712,0.000496,0.000496
-0.009744,0.00036800000000000005,0.0004965
-0.009791999999999999,0.000272,0.000497
-0.009776,0.000304,0.0004975
-0.00984,0.00023999999999999998,0.000498
-0.009984,0.00011200000000000001,0.0004985
-0.009888,0.000304,0.000499
-0.00984,0.000496,0.0004995
-0.009871999999999999,0.000576,0.0005
-0.009968,0.000512,0.0005005
-0.009935999999999999,0.000512,0.000501
-0.00976,0.0006240000000000001,0.0005015
-0.009696,0.000656,0.000502
-0.009744,0.0007040000000000001,0.0005025
-0.00992,0.00064,0.000503
-0.009968,0.0007040000000000001,0.0005035
-0.009935999999999999,0.000896,0.000504
-0.01,0.00096,0.0005045
-0.00976,0.00136,0.000505
-0.009856,0.001264,0.0005055
-0.00992,0.0011519999999999998,0.000506
-0.009871999999999999,0.001264,0.0005065
-0.00984,0.0014399999999999999,0.000507
-0.009856,0.0016319999999999998,0.0005075
-0.009856,0.001856,0.000508
-0.009871999999999999,0.0021119999999999997,0.0005085
-0.009871999999999999,0.002336,0.000509
-0.009791999999999999,0.002624,0.0005095
-0.009727999999999999,0.002912,0.00051
-0.009696,0.003216,0.0005105
-0.00968,0.0035519999999999996,0.000511
-0.009663999999999999,0.0038719999999999996,0.0005115
-0.009663999999999999,0.00424,0.000512
-0.009647999999999999,0.004672,0.0005125
-0.00976,0.0049759999999999995,0.000513
-0.009712,0.0054399999999999995,0.0005135
-0.009568,0.006064,0.000514
-0.009536,0.006608,0.0005145
-0.009552,0.007056,0.000515
-0.009552,0.007552,0.0005155
-0.009344,0.00832,0.000516
-0.009151999999999999,0.009072,0.0005165
-0.009136,0.009744,0.000517
-0.009087999999999999,0.0104,0.0005175
-0.009151999999999999,0.010992,0.000518
-0.008912,0.011824,0.0005185
-0.008832,0.012416,0.000519
-0.008352,0.013376,0.0005195
-0.008079999999999999,0.01408,0.00052
-0.008,0.014512,0.0005205
-0.00784,0.015136,0.000521
-0.0076,0.01584,0.0005215
-0.00736,0.016496,0.000522
-0.007136,0.017120000000000003,0.0005225
-0.006832,0.017616000000000003,0.000523
-0.006512,0.017952000000000003,0.0005235
-0.0061600000000000005,0.018224,0.000524
-0.0056960000000000005,0.018480000000000003,0.0005245
-0.005248,0.018592,0.000525
-0.004912000000000001,0.018528000000000003,0.0005255
-0.004592000000000001,0.018416000000000002,0.000526
-0.004224,0.018352,0.0005265
-0.0038399999999999997,0.018304,0.000527
-0.003584,0.018000000000000002,0.0005275
-0.003312,0.017648,0.000528
-0.002784,0.017472,0.0005285
-0.002384,0.017072,0.000529
-0.0021279999999999997,0.016448,0.0005295
-0.001984,0.015600000000000001,0.00053
-0.001696,0.014928,0.0005305
-0.00136,0.014352,0.000531
-0.0012000000000000001,0.013648,0.0005315
-0.001088,0.012992,0.000532
-0.001088,0.012288,0.0005325
-0.0008799999999999999,0.011872,0.000533
-0.000736,0.011392,0.0005335
-0.00056,0.011088,0.000534
-0.00036800000000000005,0.010848,0.0005345
-0.000528,0.010304,0.000535
-0.000656,0.00992,0.0005355
-0.000672,0.009712,0.000536
-0.000672,0.0096,0.0005365
-0.0007199999999999999,0.009552,0.000537
-0.000752,0.009664,0.0005375
-0.000816,0.009888,0.000538
-0.000848,0.01016,0.0005385
-0.0008799999999999999,0.01048,0.000539
-0.000928,0.010832,0.0005395
-0.000992,0.0112,0.00054
-0.001088,0.01152,0.0005405
-0.0011040000000000002,0.011951999999999999,0.000541
-0.001088,0.012464,0.0005415
-0.0011200000000000001,0.012912,0.000542
-0.0012640000000000001,0.013248,0.0005425
-0.001248,0.013824,0.000543
-0.001216,0.014256,0.0005435
-0.0013280000000000002,0.014432,0.000544
-0.001536,0.014352,0.0005445
-0.001632,0.014304,0.000545
-0.0015840000000000001,0.014352,0.0005455
-0.001552,0.014208,0.000546
-0.001552,0.01392,0.0005465
-0.0016480000000000002,0.013456,0.000547
-0.001632,0.013088,0.0005475
-0.0014880000000000002,0.012864,0.000548
-0.00152,0.012464,0.0005485
-0.001248,0.012384,0.000549
-0.0013440000000000001,0.011888,0.0005495
-0.001456,0.011392,0.00055
-0.001392,0.01112,0.0005505
-0.00128,0.01096,0.000551
-0.001168,0.010832,0.0005515
-0.001008,0.010704,0.000552
-0.000848,0.010688,0.0005525
-0.000736,0.010736,0.000553
-0.0006399999999999999,0.010832,0.0005535
-0.0006079999999999999,0.011008,0.000554
-0.0006399999999999999,0.011232,0.0005545
-0.000736,0.011456,0.000555
-0.0008799999999999999,0.011712,0.0005555
-0.001008,0.012032,0.000556
-0.001168,0.012352,0.0005565
-0.0014240000000000001,0.01248,0.000557
-0.0014880000000000002,0.012768,0.0005575
-0.001456,0.013072,0.000558
-0.0015040000000000001,0.013232,0.0005585
-0.0016480000000000002,0.013168,0.000559
-0.00176,0.013023999999999999,0.0005595
-0.001632,0.013056,0.00056
-0.001536,0.01296,0.0005605
-0.00152,0.012704,0.000561
-0.0015680000000000002,0.012288,0.0005615
-0.0016,0.01192,0.000562
-0.0014080000000000002,0.01168,0.0005625
-0.0014240000000000001,0.011152,0.000563
-0.001088,0.011136,0.0005635
-0.001072,0.010816,0.000564
-0.0011200000000000001,0.010464,0.0005645
-0.001168,0.010272,0.000565
-0.001136,0.010368,0.0005655
-0.0011040000000000002,0.010576,0.000566
-0.0012000000000000001,0.010768,0.0005665
-0.001296,0.01096,0.000567
-0.001376,0.0112,0.0005675
-0.001456,0.01144,0.000568
-0.001536,0.011664,0.0005685
-0.001552,0.011904,0.000569
-0.001536,0.012192,0.0005695
-0.0014880000000000002,0.01248,0.00057
-0.0014240000000000001,0.012735999999999999,0.0005705
-0.0013280000000000002,0.012976,0.000571
-0.00136,0.012992,0.0005715
-0.001376,0.01296,0.000572
-0.0012000000000000001,0.013008,0.0005725
-0.001216,0.012752,0.000573
-0.001312,0.012304,0.0005735
-0.001456,0.011744,0.000574
-0.001376,0.011424,0.0005745
-0.0012640000000000001,0.011167999999999999,0.000575
-0.001248,0.010816,0.0005755
-0.001296,0.010496,0.000576
-0.00144,0.010112,0.0005765
-0.0014240000000000001,0.009984,0.000577
-0.001472,0.00984,0.0005775
-0.0014240000000000001,0.00984,0.000578
-0.0012640000000000001,0.009951999999999999,0.0005785
-0.001376,0.009776,0.000579
-0.001392,0.009792,0.0005795
-0.001232,0.010048,0.00058
-0.001072,0.010368,0.0005805
-0.000928,0.010736,0.000581
-0.000816,0.01112,0.0005815
-0.000752,0.011456,0.000582
-0.0007199999999999999,0.011712,0.0005825
-0.000688,0.011936,0.000583
-0.000688,0.012064,0.0005835
-0.000736,0.01208,0.000584
-0.000816,0.012032,0.0005845
-0.000896,0.011968,0.000585
-0.000944,0.011904,0.0005855
-0.0011040000000000002,0.011712,0.000586
-0.001296,0.011408,0.0005865
-0.0013280000000000002,0.011296,0.000587
-0.0012640000000000001,0.011152,0.0005875
-0.001296,0.010848,0.000588
-0.0014080000000000002,0.010384,0.0005885
-0.0014080000000000002,0.01,0.000589
-0.0012000000000000001,0.00984,0.0005895
-0.001072,0.009632,0.00059
-0.000976,0.009455999999999999,0.0005905
-0.001008,0.0092,0.000591
-0.000976,0.009184,0.0005915
-0.000832,0.009376,0.000592
-0.000896,0.009392,0.0005925
-0.000592,0.009968,0.000593
-0.000688,0.010112,0.0005935
-0.000832,0.010239999999999999,0.000594
-0.000896,0.01048,0.0005945
-0.000944,0.010736,0.000595
-0.000992,0.010944,0.0005955
-0.001072,0.01112,0.000596
-0.0011840000000000002,0.011216,0.0005965
-0.0012640000000000001,0.011232,0.000597
-0.001296,0.011167999999999999,0.0005975
-0.0013280000000000002,0.01104,0.000598
-0.0013280000000000002,0.010864,0.0005985
-0.0012640000000000001,0.01064,0.000599
-0.0011840000000000002,0.01032,0.0005995
-0.0011040000000000002,0.009984,0.0006
-0.000992,0.009696,0.0006005
-0.001056,0.009184,0.000601
-0.001008,0.008896,0.0006015
-0.000832,0.008832,0.000602
-0.000848,0.008624,0.0006025
-0.00096,0.008368,0.000603
-0.001072,0.00816,0.0006035
-0.001024,0.008239999999999999,0.000604
-0.000976,0.008368,0.0006045
-0.001024,0.0084,0.000605
-0.001152,0.0084,0.0006055
-0.00128,0.00832,0.000606
-0.001232,0.008512,0.0006065
-0.0013280000000000002,0.008448,0.000607
-0.001088,0.008752,0.0006075
-0.0010400000000000001,0.008704,0.000608
-0.001136,0.008368,0.0006085
-0.001152,0.008048,0.000609
-0.0010400000000000001,0.007743999999999999,0.0006095
-0.00096,0.007344,0.00061
-0.0008799999999999999,0.006848,0.0006105
-0.000864,0.00624,0.000611
-0.000848,0.005568,0.0006115
-0.000848,0.004896,0.000612
-0.000832,0.004288,0.0006125
-0.000848,0.003744,0.000613
-0.000864,0.00328,0.0006135
-0.000896,0.0028799999999999997,0.000614
-0.0009119999999999999,0.002544,0.0006145
-0.000896,0.00232,0.000615
-0.001056,0.0019199999999999998,0.0006155
-0.0011040000000000002,0.0015999999999999999,0.000616
-0.000944,0.0014559999999999998,0.0006165
-0.0008799999999999999,0.0011359999999999999,0.000617
-0.000896,0.0007040000000000001,0.0006175
-0.000976,0.00023999999999999998,0.000618
-0.000832,1.600000000000001e-05,0.0006185
-0.000672,-0.00014399999999999998,0.000619
-0.0006079999999999999,-0.00047999999999999996,0.0006195
-0.000576,-0.000848,0.00062
-0.0007199999999999999,-0.001424,0.0006205
-0.000688,-0.0017759999999999998,0.000621
-0.000768,-0.002368,0.0006215
-0.0006399999999999999,-0.00272,0.000622
-0.00056,-0.003184,0.0006225
-0.000736,-0.003904,0.000623
-0.000832,-0.0044,0.0006235
-0.000848,-0.004656,0.000624
-0.0007999999999999999,-0.0048000000000000004,0.0006245
-0.000752,-0.004832,0.000625
-0.0007199999999999999,-0.0048000000000000004,0.0006255
-0.000672,-0.004672,0.000626
-0.000624,-0.004448,0.0006265
-0.000544,-0.004176,0.000627
-0.000432,-0.00384,0.0006275
-0.00031999999999999997,-0.0034560000000000003,0.000628
-0.000256,-0.003072,0.0006285
-0.000192,-0.00264,0.000629
-6.4e-05,-0.002144,0.0006295
-0.000112,-0.0019039999999999999,0.00063
-0.00012800000000000002,-0.0015999999999999999,0.0006305
-1.6000000000000003e-05,-0.0012000000000000001,0.000631
1.5999999999999996e-05,-0.000976,0.0006315
-6.4e-05,-0.000944,0.000632
-0.000176,-0.001024,0.0006325
-0.00015999999999999999,-0.000944,0.000633
-3.2000000000000005e-05,-0.000784,0.0006335
0.0,-0.0007520000000000001,0.000634
4.8e-05,-0.000736,0.0006345
-1.6000000000000003e-05,-0.000816,0.000635
0.000144,-0.000608,0.0006355
0.000272,-0.00047999999999999996,0.000636
0.0005600000000000001,-0.00012799999999999997,0.0006365
0.0008640000000000001,0.00022400000000000002,0.000637
0.0009440000000000001,0.00025600000000000004,0.0006375
0.001088,0.000384,0.000638
0.001328,0.0006240000000000001,0.0006385
0.001568,0.0009119999999999999,0.000639
0.001776,0.0011840000000000002,0.0006395
0.001936,0.001392,0.00064
0.0020800000000000003,0.00152,0.0006405
0.0022240000000000003,0.0016479999999999997,0.000641
0.0023680000000000003,0.001712,0.0006415
0.0025440000000000003,0.001696,0.000642
0.002768,0.001584,0.0006425
0.003024,0.001392,0.000643
0.0033120000000000003,0.0011359999999999999,0.0006435
0.003696,0.00088,0.000644
0.004,0.000528,0.0006445
0.00424,0.00012799999999999997,0.000645
0.004768,4.800000000000003e-05,0.0006455
0.005232,0.0,0.000646
0.0056159999999999995,-0.00012799999999999997,0.0006465
0.005872,-0.000336,0.000647
0.006208,-0.000416,0.0006475
0.006672,-0.00031999999999999997,0.000648
0.006992,-0.000336,0.0006485
0.0072,-0.00039999999999999996,0.000649
0.007248,-0.000592,0.0006495
0.007344,-0.000656,0.00065
0.0074719999999999995,-0.00056,0.0006505
0.0074719999999999995,-0.000592,0.000651
0.007712,-0.00031999999999999997,0.0006515
0.0076159999999999995,-0.000432,0.000652
0.007503999999999999,-0.000576,0.0006525
0.00752,-0.000576,0.000653
0.007552,-0.000528,0.0006535
0.00752,-0.00047999999999999996,0.000654
0.007503999999999999,-0.00039999999999999996,0.0006545
0.0074399999999999996,-0.000336,0.000655
0.007359999999999999,-0.000304,0.0006555
0.007264,-0.00023999999999999998,0.000656
0.007168,-0.000176,0.0006565
0.007024,-0.00012799999999999997,0.000657
0.006895999999999999,-1.600000000000001e-05,0.0006575
0.006784,0.00015999999999999999,0.000658
0.006672,0.000304,0.0006585
0.0065439999999999995,0.00039999999999999996,0.000659
0.00632,0.000272,0.0006595
0.006255999999999999,0.00028800000000000006,0.00066
0.006336,0.000352,0.0006605
0.0063679999999999995,0.000272,0.000661
0.006384,9.600000000000006e-05,0.0006615
0.0063999999999999994,-4.7999999999999974e-05,0.000662
0.0066879999999999995,0.00012799999999999997,0.0006625
0.006928,0.00017600000000000005,0.000663
0.007136,0.00012799999999999997,0.0006635
0.007264,-9.6e-05,0.000664
0.0073279999999999994,-0.000432,0.0006645
0.0076,-0.00056,0.000665
0.0076159999999999995,-0.000864,0.0006655
0.00792,-0.000688,0.000666
0.007936,-0.000768,0.0006665
0.007824000000000001,-0.000928,0.000667
0.0077919999999999994,-0.000896,0.0006675
0.007775999999999999,-0.000704,0.000668
0.007744,-0.000496,0.0006685
0.007679999999999999,-0.00031999999999999997,0.000669
0.007584,-0.00012799999999999997,0.0006695
0.00752,4.800000000000003e-05,0.00067
0.007503999999999999,0.00017600000000000005,0.0006705
0.007503999999999999,0.000304,0.000671
0.007535999999999999,0.00039999999999999996,0.0006715
0.007584,0.00041600000000000003,0.000672
0.007664,0.00033600000000000004,0.0006725
0.007775999999999999,0.000272,0.000673
0.007904000000000001,0.00025600000000000004,0.0006735
0.00792,3.200000000000002e-05,0.000674
0.007968000000000001,-0.00014399999999999998,0.0006745
0.008192000000000001,-0.00012799999999999997,0.000675
0.008320000000000001,-0.00023999999999999998,0.0006755
0.008368,-0.000464,0.000676
0.008336000000000001,-0.000688,0.0006765
0.008400000000000001,-0.000656,0.000677
0.008512,-0.000464,0.0006775
0.008528,-0.000368,0.000678
0.008512,-0.000256,0.0006785
0.008352,-0.00023999999999999998,0.000679
0.008368,0.0,0.0006795
0.008304,0.00011200000000000001,0.00068
0.008368,0.000272,0.0006805
0.008512,0.000464,0.000681
0.008352,0.00023999999999999998,0.0006815
0.00824,7.999999999999999e-05,0.000682
0.008192000000000001,4.800000000000003e-05,0.0006825
0.008144,7.999999999999999e-05,0.000683
0.008096,0.00014400000000000003,0.0006835
0.008032000000000001,0.00015999999999999999,0.000684
0.007984,0.000192,0.0006845
0.007952,0.00020800000000000007,0.000685
0.007984,0.00020800000000000007,0.0006855
0.008032000000000001,0.00011200000000000001,0.000686
0.008112000000000001,1.600000000000001e-05,0.0006865
0.008192000000000001,-3.1999999999999965e-05,0.000687
0.008272,-1.600000000000001e-05,0.0006875
0.008432,0.00012799999999999997,0.000688
0.008496,0.00023999999999999998,0.0006885
0.008416,0.00020800000000000007,0.000689
0.008544000000000001,0.000384,0.0006895
0.00872,0.000544,0.00069
0.008752000000000001,0.000496,0.0006905
0.008688000000000001,0.000304,0.000691
0.00864,0.00011200000000000001,0.0006915
0.00872,0.00017600000000000005,0.000692
0.008736,0.000272,0.0006925
0.008688000000000001,0.000272,0.000693
0.008528,0.000192,0.0006935
0.008368,0.00012799999999999997,0.000694
0.008336000000000001,0.00022400000000000002,0.0006945
0.008112000000000001,1.600000000000001e-05,0.000695
0.008320000000000001,0.00025600000000000004,0.0006955
0.008304,0.00017600000000000005,0.000696
0.008176000000000001,-3.1999999999999965e-05,0.0006965
0.008224,-1.600000000000001e-05,0.000697
0.008368,6.400000000000004e-05,0.0006975
0.008480000000000001,0.00011200000000000001,0.000698
0.00864,0.00020800000000000007,0.0006985
0.008832000000000001,0.000304,0.000699
0.008992,0.000384,0.0006995
0.009088,0.00044800000000000005,0.0007
0.009232,0.000592,0.0007005
0.009328000000000001,0.0007040000000000001,0.000701
0.009392000000000001,0.000736,0.0007015
0.009424,0.000736,0.000702
0.009456,0.000672,0.0007025
0.009504,0.000512,0.000703
0.009376,0.00015999999999999999,0.0007035
0.009248000000000001,-6.399999999999998e-05,0.000704
0.00928,-4.7999999999999974e-05,0.0007045
0.009232,-0.00015999999999999999,0.000705
0.009056,-0.000352,0.0007055
0.00888,-0.000512,0.000706
0.008928,-0.00039999999999999996,0.0007065
0.009056,-0.000176,0.000707
0.009072,-9.6e-05,0.0007075
0.009088,-6.399999999999998e-05,0.000708
0.009040000000000001,-0.00014399999999999998,0.0007085
0.0092,3.200000000000002e-05,0.000709
0.00928,1.600000000000001e-05,0.0007095
0.00952,0.00022400000000000002,0.00071
0.009808,0.000464,0.0007105
0.009792,0.000352,0.000711
0.009776,0.00031999999999999997,0.0007115
0.00984,0.00036800000000000005,0.000712
0.009888000000000001,0.00031999999999999997,0.0007125
0.009936,0.00015999999999999999,0.000713
0.009936,-4.7999999999999974e-05,0.0007135
0.009872,-0.00028799999999999995,0.000714
0.009760000000000001,-0.000432,0.0007145
0.009664,-0.000496,0.000715
0.009584,-0.000512,0.0007155
0.00952,-0.000432,0.000716
0.009472000000000001,-0.000336,0.0007165
0.00944,-0.000272,0.000717
0.009488,-0.000208,0.0007175
0.00944,-0.000256,0.000718
0.009392000000000001,-0.000336,0.0007185
0.00952,-0.00015999999999999999,0.000719
0.009648,-6.399999999999998e-05,0.0007195
0.009728,-1.600000000000001e-05,0.00072
0.009728,-7.999999999999999e-05,0.0007205
0.009808,-6.399999999999998e-05,0.000721
0.009968000000000001,0.00011200000000000001,0.0007215
0.01008,0.00015999999999999999,0.000722
0.010112000000000001,0.00011200000000000001,0.0007225
0.01,-0.00011199999999999996,0.000723
0.009968000000000001,-0.00019199999999999998,0.0007235
0.009984,-0.000224,0.000724
0.00984,-0.000416,0.0007245
0.01,-0.000224,0.000725
0.009808,-0.00039999999999999996,0.0007255
0.009616000000000001,-0.000576,0.000726
0.009584,-0.000576,0.0007265
0.009616000000000001,-0.000496,0.000727
0.009616000000000001,-0.000432,0.0007275
0.009600000000000001,-0.000336,0.000728
0.009600000000000001,-0.00028799999999999995,0.0007285
0.009616000000000001,-0.00028799999999999995,0.000729
0.009680000000000001,-0.000272,0.0007295
0.009744000000000001,-0.00028799999999999995,0.00073
0.00984,-0.00023999999999999998,0.0007305
0.009856,-0.000256,0.000731
0.00992,-0.000208,0.0007315
0.009936,-0.00014399999999999998,0.000732
0.010016,-3.1999999999999965e-05,0.0007325
0.009856,-0.00014399999999999998,0.000733
0.009808,-0.00011199999999999996,0.0007335
0.009888000000000001,9.600000000000006e-05,0.000734
0.009760000000000001,6.400000000000004e-05,0.0007345
0.009552,-7.999999999999999e-05,0.000735
0.009344,-0.00019199999999999998,0.0007355
0.009296,-9.6e-05,0.000736
0.00928,4.800000000000003e-05,0.0007365
0.009120000000000001,0.00011200000000000001,0.000737
0.008928,0.00014400000000000003,0.0007375
0.008752000000000001,6.400000000000004e-05,0.000738
0.008784,0.00023999999999999998,0.0007385
0.008656,0.00012799999999999997,0.000739
0.008848,0.00041600000000000003,0.0007395
0.008848,0.00044800000000000005,0.00074
0.008608000000000001,0.00017600000000000005,0.0007405
0.008496,3.200000000000002e-05,0.000741
0.008416,0.0,0.0007415
0.008272,1.600000000000001e-05,0.000742
0.008064,4.800000000000003e-05,0.0007425
0.0077919999999999994,0.00011200000000000001,0.000743
0.00752,0.00015999999999999999,0.0007435
0.007232,0.00020800000000000007,0.000744
0.0069759999999999996,0.000272,0.0007445
0.0066879999999999995,0.000272,0.000745
0.006384,0.00028800000000000006,0.0007455
0.006064,0.00028800000000000006,0.000746
0.005791999999999999,0.000272,0.0007465
0.0055839999999999996,0.00036800000000000005,0.000747
0.005312,0.00036800000000000005,0.0007475
0.005007999999999999,0.000272,0.000748
0.004912,0.00036800000000000005,0.0007485
0.004768,0.000304,0.000749
0.004496,9.600000000000006e-05,0.0007495
0.004128,-0.00019199999999999998,0.00075
0.003872,-0.000256,0.0007505
0.003696,-0.00012799999999999997,0.000751
0.0034400000000000003,-6.399999999999998e-05,0.0007515
0.003088,-3.1999999999999965e-05,0.000752
0.002576,-0.00014399999999999998,0.0007525
0.002192,-9.6e-05,0.000753
0.001888,0.0,0.0007535
0.0015359999999999998,-6.399999999999998e-05,0.000754
0.0014399999999999999,0.00020800000000000007,0.0007545
0.0010559999999999999,6.400000000000004e-05,0.000755
0.000704,-6.399999999999998e-05,0.0007555
0.000512,-1.600000000000001e-05,0.000756
0.00044800000000000005,9.600000000000006e-05,0.0007565
0.00036799999999999995,0.00015999999999999999,0.000757
0.000352,0.00020800000000000007,0.0007575
0.00031999999999999997,0.000192,0.000758
0.00028799999999999995,0.00017600000000000005,0.0007585
0.00028799999999999995,0.00017600000000000005,0.000759
0.000352,0.000192,0.0007595
0.00044800000000000005,0.000192,0.00076
0.00048000000000000007,0.000192,0.0007605
0.000528,0.000192,0.000761
0.000608,0.00022400000000000002,0.0007615
0.000704,0.00025600000000000004,0.000762
0.0006720000000000001,6.400000000000004e-05,0.0007625
0.00072,-3.1999999999999965e-05,0.000763
0.0009440000000000001,4.800000000000003e-05,0.0007635
0.00104,1.600000000000001e-05,0.000764
0.001088,-9.6e-05,0.0007645
0.00112,-0.00015999999999999999,0.000765
0.0012959999999999998,3.200000000000002e-05,0.0007655
0.001504,0.00025600000000000004,0.000766
0.001632,0.00036800000000000005,0.0007665
0.001728,0.00036800000000000005,0.000767
0.001728,0.00022400000000000002,0.0007675
0.001888,0.00025600000000000004,0.000768
0.0018399999999999998,3.200000000000002e-05,0.0007685
0.0020480000000000003,0.00014400000000000003,0.000769
0.002112,0.00015999999999999999,0.0007695
0.001936,-7.999999999999999e-05,0.00077
0.0018399999999999998,-0.000176,0.0007705
0.001808,-0.00015999999999999999,0.000771
0.0017439999999999999,-0.00015999999999999999,0.0007715
0.0016799999999999999,-0.000176,0.000772
0.0015999999999999999,-0.000176,0.0007725
0.001504,-0.00019199999999999998,0.000773
0.001424,-0.000208,0.0007735
0.0013599999999999999,-0.000176,0.000774
0.001312,-4.7999999999999974e-05,0.0007745
0.0012799999999999999,0.00011200000000000001,0.000775
0.0012799999999999999,0.000272,0.0007755
0.001264,0.00036800000000000005,0.000776
0.0012799999999999999,0.000496,0.0007765
0.001232,0.000384,0.000777
0.0011359999999999999,0.00017600000000000005,0.0007775
0.0012159999999999999,0.00023999999999999998,0.000778
0.001232,0.00023999999999999998,0.0007785
0.0011519999999999998,0.00014400000000000003,0.000779
0.000976,-7.999999999999999e-05,0.0007795
0.000912,-9.6e-05,0.00078
0.001008,4.800000000000003e-05,0.0007805
0.0009919999999999998,0.00011200000000000001,0.000781
0.00096,0.00014400000000000003,0.0007815
0.000784,-3.1999999999999965e-05,0.000782
0.000784,-3.1999999999999965e-05,0.0007825
0.0008640000000000001,4.800000000000003e-05,0.000783
0.0008640000000000001,0.0,0.0007835
0.00112,0.000304,0.000784
0.001088,0.000192,0.0007845
0.00104,6.400000000000004e-05,0.000785
0.0011359999999999999,6.400000000000004e-05,0.0007855
0.001248,0.00015999999999999999,0.000786
0.0013759999999999998,0.00022400000000000002,0.0007865
0.0014559999999999998,0.000272,0.000787
0.001488,0.00025600000000000004,0.0007875
0.0015199999999999999,0.00025600000000000004,0.000788
0.0015199999999999999,0.00025600000000000004,0.0007885
0.001552,0.00025600000000000004,0.000789
0.001552,0.000272,0.0007895
0.001504,0.00028800000000000006,0.00079
0.0014559999999999998,0.00028800000000000006,0.0007905
0.001424,0.000304,0.000791
0.001424,0.00033600000000000004,0.0007915
0.0012799999999999999,0.00015999999999999999,0.000792
0.001232,0.00011200000000000001,0.0007925
0.001312,0.00025600000000000004,0.000793
0.0012959999999999998,0.00025600000000000004,0.0007935
0.001184,0.00015999999999999999,0.000794
0.001024,4.800000000000003e-05,0.0007945
0.00104,0.00020800000000000007,0.000795
0.001104,0.00036800000000000005,0.0007955
0.001024,0.000304,0.000796
0.0009440000000000001,0.00023999999999999998,0.0007965
0.0008,4.800000000000003e-05,0.000797
0.000848,0.00011200000000000001,0.0007975
0.000784,-1.600000000000001e-05,0.000798
0.000976,0.00025600000000000004,0.0007985
0.0010559999999999999,0.00031999999999999997,0.000799
0.00096,0.00014400000000000003,0.0007995
0.000976,6.400000000000004e-05,0.0008
0.001088,6.400000000000004e-05,0.0008005
0.001168,1.600000000000001e-05,0.000801
0.001232,0.0,0.0008015
0.0012799999999999999,-1.600000000000001e-05,0.000802
0.0012799999999999999,-1.600000000000001e-05,0.0008025
0.0012959999999999998,4.800000000000003e-05,0.000803
0.0012799999999999999,0.00014400000000000003,0.0008035
0.001232,0.00020800000000000007,0.000804
0.001168,0.000272,0.0008045
0.0010559999999999999,0.00028800000000000006,0.000805
0.000976,0.000304,0.0008055
0.000912,0.000304,0.000806
0.000688,0.00012799999999999997,0.0008065
0.000528,1.600000000000001e-05,0.000807
0.000576,0.00014400000000000003,0.0008075
0.000576,0.000192,0.000808
0.000528,0.00014400000000000003,0.0008085
0.000432,1.600000000000001e-05,0.000809
0.00048000000000000007,6.400000000000004e-05,0.0008095
0.00064,0.000192,0.00081
0.000704,0.00015999999999999999,0.0008105
0.000768,7.999999999999999e-05,0.000811
0.0007520000000000001,-0.00014399999999999998,0.0008115
0.0008640000000000001,-0.00014399999999999998,0.000812
0.000912,-0.000224,0.0008125
0.001088,-6.399999999999998e-05,0.000813
0.0012799999999999999,0.00015999999999999999,0.0008135
0.001168,9.600000000000006e-05,0.000814
0.001104,9.600000000000006e-05,0.0008145
0.00112,0.00022400000000000002,0.000815
0.0011359999999999999,0.00036800000000000005,0.0008155
0.001104,0.00044800000000000005,0.000816
0.001088,0.000464,0.0008165
0.001024,0.00036800000000000005,0.000817
0.0009919999999999998,0.00025600000000000004,0.0008175
0.0009919999999999998,0.000192,0.000818
0.001008,0.00015999999999999999,0.0008185
0.00104,7.999999999999999e-05,0.000819
0.001088,4.800000000000003e-05,0.0008195
0.0011359999999999999,1.600000000000001e-05,0.00082
0.001232,7.999999999999999e-05,0.0008205
0.0012159999999999999,-3.1999999999999965e-05,0.000821
0.001168,-0.00012799999999999997,0.0008215
0.0012799999999999999,1.600000000000001e-05,0.000822
0.0013599999999999999,9.600000000000006e-05,0.0008225
0.001344,9.600000000000006e-05,0.000823
0.001232,3.200000000000002e-05,0.0008235
0.001232,0.00012799999999999997,0.000824
0.0013599999999999999,0.000352,0.0008245
0.001344,0.00039999999999999996,0.000825
0.001328,0.000432,0.0008255
0.0011519999999999998,0.000272,0.000826
0.0011359999999999999,0.00023999999999999998,0.0008265
0.0011519999999999998,0.000192,0.000827
0.0011359999999999999,7.999999999999999e-05,0.0008275
0.001344,0.00022400000000000002,0.000828
0.0012159999999999999,1.600000000000001e-05,0.0008285
0.00112,-0.00011199999999999996,0.000829
0.001104,-9.6e-05,0.0008295
0.0011359999999999999,-4.7999999999999974e-05,0.00083
0.0012,0.0,0.0008305
0.001248,0.0,0.000831
0.001312,3.200000000000002e-05,0.0008315
0.001328,9.600000000000006e-05,0.000832
0.001344,0.000192,0.0008325
0.0013759999999999998,0.00028800000000000006,0.000833
0.001408,0.00033600000000000004,0.0008335
0.001408,0.00031999999999999997,0.000834
0.001408,0.000304,0.0008345
0.001408,0.000352,0.000835
0.0013599999999999999,0.00036800000000000005,0.0008355
0.001184,0.000192,0.000836
0.0012,0.000192,0.0008365
0.001232,0.00025600000000000004,0.000837
0.001168,0.00025600000000000004,0.0008375
0.0009919999999999998,0.00014400000000000003,0.000838
0.0008640000000000001,9.600000000000006e-05,0.0008385
0.000928,0.000272,0.000839
0.0009440000000000001,0.00036800000000000005,0.0008395
0.0009440000000000001,0.000384,0.00084
0.000896,0.00028800000000000006,0.0008405
0.0008640000000000001,0.00015999999999999999,0.000841
0.001008,0.00025600000000000004,0.0008415
0.00096,9.600000000000006e-05,0.000842
0.001264,0.00041600000000000003,0.0008425
0.001264,0.000464,0.000843
0.0011519999999999998,0.000384,0.0008435
0.0011359999999999999,0.00039999999999999996,0.000844
0.0010719999999999998,0.00036800000000000005,0.0008445
0.00104,0.000352,0.000845
0.00096,0.000272,0.0008455
0.000816,0.00020800000000000007,0.000846
0.000688,0.00023999999999999998,0.0008465
0.000528,0.00023999999999999998,0.000847
0.000352,0.00025600000000000004,0.0008475
0.000224,0.00028800000000000006,0.000848
0.000128,0.00028800000000000006,0.0008485
6.4e-05,0.00028800000000000006,0.000849
3.2000000000000005e-05,0.00031999999999999997,0.0008495
3.2000000000000005e-05,0.00036800000000000005,0.00085
-9.6e-05,0.00020800000000000007,0.0008505
-0.000112,0.00022400000000000002,0.000851
4.8e-05,0.00039999999999999996,0.0008515
0.00011200000000000001,0.00041600000000000003,0.000852
7.999999999999999e-05,0.00033600000000000004,0.0008525
-4.8e-05,0.000192,0.000853
-6.4e-05,0.000192,0.0008535
-7.999999999999999e-05,0.00022400000000000002,0.000854
-0.000256,0.00015999999999999999,0.0008545
-0.000496,9.600000000000006e-05,0.000855
-0.000848,-9.6e-05,0.0008555
-0.001056,-1.600000000000001e-05,0.000856
-0.001456,-9.6e-05,0.0008565
-0.0015680000000000002,0.00015999999999999999,0.000857
-0.001776,0.00028800000000000006,0.0008575
-0.00216,0.000192,0.000858
-0.0024319999999999997,0.000192,0.0008585
-0.002624,0.00028800000000000006,0.000859
-0.0028,0.00039999999999999996,0.0008595
-0.002976,0.00044800000000000005,0.00086
-0.003152,0.000432,0.0008605
-0.003328,0.00033600000000000004,0.000861
-0.0034879999999999998,0.000272,0.0008615
-0.003632,0.00023999999999999998,0.000862
-0.0038239999999999997,0.00023999999999999998,0.0008625
-0.004032,0.00025600000000000004,0.000863
-0.004256,0.00028800000000000006,0.0008635
-0.004512,0.00028800000000000006,0.000864
-0.004784,0.00036800000000000005,0.0008645
-0.005200000000000001,0.00023999999999999998,0.000865
-0.005632000000000001,7.999999999999999e-05,0.0008655
-0.005824,0.00014400000000000003,0.000866
-0.00608,0.00014400000000000003,0.0008665
-0.006416000000000001,7.999999999999999e-05,0.000867
-0.006816,-3.1999999999999965e-05,0.0008675
-0.007008,6.400000000000004e-05,0.000868
-0.007104,0.00022400000000000002,0.0008685
-0.007248,0.000192,0.000869
-0.007328,0.00014400000000000003,0.0008695
-0.007504,-4.7999999999999974e-05,0.00087
-0.007472,3.200000000000002e-05,0.0008705
-0.007472,4.800000000000003e-05,0.000871
-0.007328,0.00022400000000000002,0.0008715
-0.0071200000000000005,0.00044800000000000005,0.000872
-0.007168,0.00036800000000000005,0.0008725
-0.007136,0.00033600000000000004,0.000873
-0.006992,0.00039999999999999996,0.0008735
-0.006832,0.00039999999999999996,0.000874
-0.00672,0.00031999999999999997,0.0008745
-0.006672,0.000192,0.000875
-0.0066240000000000005,9.600000000000006e-05,0.0008755
-0.006608,4.800000000000003e-05,0.000876
-0.006576,6.400000000000004e-05,0.0008765
-0.006528,0.00011200000000000001,0.000877
-0.006496,0.00014400000000000003,0.0008775
-0.0064800000000000005,0.00014400000000000003,0.000878
-0.006464,0.00014400000000000003,0.0008785
-0.006448000000000001,0.00017600000000000005,0.000879
-0.006544,9.600000000000006e-05,0.0008795
-0.0066240000000000005,3.200000000000002e-05,0.00088
-0.006544,0.00025600000000000004,0.0008805
-0.006528,0.00041600000000000003,0.000881
-0.006608,0.000496,0.0008815
-0.006816,0.00044800000000000005,0.000882
-0.006928,0.000496,0.0008825
-0.00696,0.0006079999999999999,0.000883
-0.0071200000000000005,0.000544,0.0008835
-0.007312,0.000432,0.000884
-0.007632,0.00015999999999999999,0.0008845
-0.007776,0.00011200000000000001,0.000885
-0.00792,7.999999999999999e-05,0.0008855
-0.008032,4.800000000000003e-05,0.000886
-0.007984,0.00025600000000000004,0.0008865
-0.008208,0.00011200000000000001,0.000887
-0.008352,3.200000000000002e-05,0.0008875
-0.008336,0.00011200000000000001,0.000888
-0.008223999999999999,0.00017600000000000005,0.0008885
-0.008079999999999999,0.00023999999999999998,0.000889
-0.007935999999999999,0.00028800000000000006,0.0008895
-0.007808000000000001,0.00033600000000000004,0.00089
-0.007664000000000001,0.000384,0.0008905
-0.007520000000000001,0.00041600000000000003,0.000891
-0.007392,0.000464,0.0008915
-0.0072640000000000005,0.000496,0.000892
-0.007200000000000001,0.000496,0.0008925
-0.007200000000000001,0.00044800000000000005,0.000893
-0.007184,0.00039999999999999996,0.0008935
-0.00728,0.000272,0.000894
-0.007488000000000001,6.400000000000004e-05,0.0008945
-0.007536,0.00012799999999999997,0.000895
-0.007568,0.00017600000000000005,0.0008955
-0.007696000000000001,0.00017600000000000005,0.000896
-0.007888,0.00012799999999999997,0.0008965
-0.007984,0.00015999999999999999,0.000897
-0.007935999999999999,0.00033600000000000004,0.0008975
-0.007951999999999999,0.00039999999999999996,0.000898
-0.008015999999999999,0.00039999999999999996,0.0008985
-0.008159999999999999,0.00025600000000000004,0.000899
-0.008223999999999999,0.00022400000000000002,0.0008995
-0.008192,0.00033600000000000004,0.0009
-0.008272,0.00025600000000000004,0.0009005
-0.008048,0.0005600000000000001,0.000901
-0.008159999999999999,0.000432,0.0009015
-0.008303999999999999,0.00028800000000000006,0.000902
-0.008352,0.000272,0.0009025
-0.0084,0.00025600000000000004,0.000903
-0.008432,0.00020800000000000007,0.0009035
-0.008464,0.00015999999999999999,0.000904
-0.008464,0.00012799999999999997,0.0009045
-0.008464,0.00011200000000000001,0.000905
-0.008416,0.00011200000000000001,0.0009055
-0.008352,0.00017600000000000005,0.000906
-0.008288,0.00022400000000000002,0.0009065
-0.008223999999999999,0.00020800000000000007,0.000907
-0.008095999999999999,0.00020800000000000007,0.0009075
-0.008,0.00020800000000000007,0.000908
-0.007888,0.00025600000000000004,0.0009085
-0.007984,7.999999999999999e-05,0.000909
-0.007968,0.00011200000000000001,0.0009095
-0.007888,0.00017600000000000005,0.00091
-0.007984,0.00012799999999999997,0.0009105
-0.008208,-3.1999999999999965e-05,0.000911
-0.008464,-0.00014399999999999998,0.0009115
-0.008496,-6.399999999999998e-05,0.000912
-0.00856,-1.600000000000001e-05,0.0009125
-0.008704,-7.999999999999999e-05,0.000913
-0.008896,-0.00011199999999999996,0.0009135
-0.009087999999999999,-0.00015999999999999999,0.000914
-0.009104,0.0,0.0009145
-0.009231999999999999,-7.999999999999999e-05,0.000915
-0.008976,0.00017600000000000005,0.0009155
-0.008896,0.00011200000000000001,0.000916
-0.00896,-0.00011199999999999996,0.0009165
-0.008863999999999999,-0.00019199999999999998,0.000917
-0.008704,-0.000208,0.0009175
-0.008544,-0.000208,0.000918
-0.008432,-0.000272,0.0009185
-0.008416,-0.00039999999999999996,0.000919
-0.0084,-0.000448,0.0009195
-0.0084,-0.00047999999999999996,0.00092
-0.008432,-0.000512,0.0009205
-0.008464,-0.000512,0.000921
-0.008527999999999999,-0.000528,0.0009215
-0.008655999999999999,-0.0006399999999999999,0.000922
-0.008816,-0.000768,0.0009225
-0.008879999999999999,-0.000736,0.000923
-0.009104,-0.000848,0.0009235
-0.009311999999999999,-0.0010400000000000001,0.000924
-0.009295999999999999,-0.001056,0.0009245
-0.009264,-0.001104,0.000925
-0.009344,-0.001328,0.0009255
-0.009472,-0.0016159999999999998,0.000926
-0.009455999999999999,-0.0017920000000000002,0.0009265
-0.009295999999999999,-0.001872,0.000927
-0.0092,-0.002064,0.0009275
-0.009151999999999999,-0.00224,0.000928
-0.009248,-0.002608,0.0009285
-0.009216,-0.002752,0.000929
-0.00912,-0.002896,0.0009295
-0.009136,-0.0031520000000000003,0.00093
-0.008879999999999999,-0.003136,0.0009305
-0.00904,-0.003536,0.000931
-0.0092,-0.003936,0.0009315
-0.009248,-0.00424,0.000932
-0.00928,-0.00464,0.0009325
-0.009344,-0.005136,0.000933
-0.009392,-0.005696,0.0009335
-0.009424,-0.006288,0.000934
-0.009472,-0.006912,0.0009345
-0.009488,-0.007568,0.000935
-0.009504,-0.008208,0.0009355
-0.009552,-0.00888,0.000936
-0.009568,-0.00952,0.0009365
-0.009583999999999999,-0.010144,0.000937
-0.009568,-0.010704,0.0009375
-0.009536,-0.011248,0.000938
-0.00968,-0.012032,0.0009385
-0.009712,-0.012672,0.000939
-0.009616,-0.013184,0.0009395
-0.009616,-0.01376,0.00094
-0.009727999999999999,-0.014416,0.0009405
-0.009824,-0.015008,0.000941
-0.009744,-0.015376,0.0009415
-0.009632,-0.015776,0.000942
-0.009583999999999999,-0.016239999999999997,0.0009425
-0.009536,-0.016703999999999997,0.000943
-0.009583999999999999,-0.017183999999999998,0.0009435
-0.009439999999999999,-0.017359999999999997,0.000944
-0.009488,-0.017664,0.0009445
-0.009231999999999999,-0.017519999999999997,0.000945
-0.00912,-0.017488,0.0009455
-0.009231999999999999,-0.017584,0.000946
-0.009295999999999999,-0.017519999999999997,0.0009465
-0.009311999999999999,-0.017296,0.000947
-0.00936,-0.017023999999999997,0.0009475
-0.009424,-0.01664,0.000948
-0.009472,-0.016144,0.0009485
-0.009536,-0.015712,0.000949
-0.0096,-0.015264,0.0009495
-0.009616,-0.014752,0.00095
-0.0096,-0.014176,0.0009505
-0.009536,-0.0136,0.000951
-0.009488,-0.013056,0.0009515
-0.00936,-0.012432,0.000952
-0.009151999999999999,-0.01184,0.0009525
-0.009072,-0.011424,0.000953
-0.00904,-0.011152,0.0009535
-0.008719999999999999,-0.010688,0.000954
-0.00848,-0.010304,0.0009545
-0.008352,-0.010048,0.000955
-0.008303999999999999,-0.009776,0.0009555
-0.008208,-0.009456,0.000956
-0.007968,-0.00904,0.0009565
-0.007871999999999999,-0.008848,0.000957
-0.00784,-0.008816000000000001,0.0009575
-0.007951999999999999,-0.009008,0.000958
-0.007888,-0.009072,0.0009585
-0.007696000000000001,-0.009184,0.000959
-0.0076,-0.009472,0.0009595
-0.00728,-0.009584,0.00096
-0.007248,-0.010144,0.0009605
-0.0071200000000000005,-0.010608,0.000961
-0.006816,-0.010912,0.0009615
-0.006464,-0.0112,0.000962
-0.006112,-0.011536,0.0009625
-0.005776,-0.011856,0.000963
-0.005472,-0.012208,0.0009635
-0.005104,-0.01248,0.000964
-0.00472,-0.012816,0.0009645
-0.004384,-0.013104,0.000965
-0.004128000000000001,-0.013392,0.0009655
-0.003904,-0.013632,0.000966
-0.003744,-0.013824,0.0009665
-0.003552,-0.013904,0.000967
-0.0033439999999999998,-0.013824,0.0009675
-0.003312,-0.013904,0.000968
-0.003168,-0.013824,0.0009685
-0.002848,-0.013488,0.000969
-0.002624,-0.013248,0.0009695
-0.00248,-0.012992,0.00097
-0.002336,-0.012688,0.0009705
-0.001984,-0.012144,0.000971
-0.0016480000000000002,-0.011584,0.0009715
-0.001376,-0.011136,0.000972
-0.001088,-0.010752,0.0009725
-0.0009119999999999999,-0.010496,0.000973
-0.00056,-0.010064,0.0009735
-0.000512,-0.009904,0.000974
-0.000288,-0.009536,0.0009745
-6.4e-05,-0.009136,0.000975
-4.8e-05,-0.009024,0.0009755
-4.8e-05,-0.008960000000000001,0.000976
-0.000112,-0.009008,0.0009765
-0.00020800000000000001,-0.00912,0.000977
-0.000304,-0.009248,0.0009775
-0.000352,-0.009376,0.000978
-0.000384,-0.009552,0.0009785
-0.000432,-0.009776,0.000979
-0.000544,-0.010112,0.0009795
-0.000688,-0.010576,0.00098
-0.000784,-0.010992,0.0009805
-0.000816,-0.011392,0.000981
-0.000848,-0.01176,0.0009815
-0.000832,-0.011984,0.000982
-0.0009119999999999999,-0.012240000000000001,0.0009825
-0.001136,-0.012528000000000001,0.000983
-0.0011200000000000001,-0.012496,0.0009835
-0.001088,-0.012432,0.000984
-0.001232,-0.012448,0.0009845
-0.001472,-0.012512,0.000985
-0.001616,-0.012416,0.0009855
-0.0016,-0.012064,0.000986
-0.0015680000000000002,-0.011712,0.0009865
-0.0016,-0.011376,0.000987
-0.001712,-0.0112,0.0009875
-0.0017920000000000002,-0.01088,0.000988
-0.00168,-0.010416,0.0009885
-0.001696,-0.010208,0.000989
-0.0013280000000000002,-0.009664,0.0009895
-0.001312,-0.009584,0.00099
-0.00136,-0.009600000000000001,0.0009905
-0.001296,-0.009472,0.000991
-0.0011040000000000002,-0.009248,0.0009915
-0.000992,-0.00912,0.000992
-0.000944,-0.009104,0.0009925
-0.00096,-0.009168,0.000993
-0.000976,-0.009248,0.0009935
-0.000928,-0.009344,0.000994
-0.000848,-0.009504,0.0009945
-0.000848,-0.009600000000000001,0.000995
-0.000832,-0.009872,0.0009955
-0.000816,-0.010256,0.000996
-0.000816,-0.010496,0.0009965
-0.0007999999999999999,-0.01064,0.000997
-0.0009119999999999999,-0.010992,0.0009975
-0.00096,-0.011232,0.000998
-0.000864,-0.011344,0.0009985
-0.0008799999999999999,-0.011584,0.000999
