# Incident [V], Transmitted [V], time [s]
0.0,0.0,0.0
0.0,-1.600000000000001e-05,5e-07
-3.2000000000000005e-05,-3.199999999999999e-05,1e-06
-3.2000000000000005e-05,-6.400000000000001e-05,1.5e-06
-6.4e-05,-9.6e-05,2e-06
-8e-05,-0.00011200000000000001,2.5e-06
-3.2000000000000005e-05,-4.8e-05,3e-06
0.0,0.0,3.5e-06
-3.2000000000000005e-05,-3.199999999999999e-05,4e-06
-3.2000000000000005e-05,-6.400000000000001e-05,4.5e-06
-4.8000000000000015e-05,-7.999999999999999e-05,5e-06
-0.00012800000000000002,-0.000192,5.5e-06
-3.2000000000000005e-05,-7.999999999999999e-05,6e-06
7.999999999999999e-05,3.199999999999999e-05,6.5e-06
1.5999999999999996e-05,0.0,7e-06
-6.4e-05,-0.00012800000000000002,7.5e-06
-9.599999999999999e-05,-0.000176,8e-06
0.0,-4.8e-05,8.5e-06
4.8e-05,3.199999999999999e-05,9e-06
0.0,-1.600000000000001e-05,9.5e-06
0.0,-4.8e-05,1e-05
-9.599999999999999e-05,-0.000192,1.05e-05
3.199999999999999e-05,-4.8e-05,1.1e-05
-6.4e-05,-0.00011200000000000001,1.15e-05
6.4e-05,9.599999999999999e-05,1.2e-05
4.8e-05,9.599999999999999e-05,1.25e-05
-6.4e-05,-7.999999999999999e-05,1.3e-05
-6.4e-05,-9.6e-05,1.35e-05
-1.5999999999999996e-05,-6.400000000000001e-05,1.4e-05
1.5999999999999996e-05,-3.199999999999999e-05,1.45e-05
-1.5999999999999996e-05,-4.8e-05,1.5e-05
-3.2000000000000005e-05,-7.999999999999999e-05,1.55e-05
-3.2000000000000005e-05,-6.400000000000001e-05,1.6e-05
-1.5999999999999996e-05,-6.400000000000001e-05,1.65e-05
-1.5999999999999996e-05,-4.8e-05,1.7e-05
1.5999999999999996e-05,-3.199999999999999e-05,1.75e-05
-4.8000000000000015e-05,-0.00011200000000000001,1.8e-05
1.5999999999999996e-05,-3.199999999999999e-05,1.85e-05
0.0,-6.400000000000001e-05,1.9e-05
1.5999999999999996e-05,-7.999999999999999e-05,1.95e-05
-0.000112,-0.00020800000000000001,2e-05
1.5999999999999996e-05,-3.199999999999999e-05,2.05e-05
3.199999999999999e-05,1.5999999999999982e-05,2.1e-05
0.0,-3.199999999999999e-05,2.15e-05
-6.4e-05,-0.00011200000000000001,2.2e-05
-8e-05,-0.00015999999999999999,2.25e-05
1.5999999999999996e-05,0.0,2.3e-05
1.5999999999999996e-05,0.0,2.35e-05
-1.5999999999999996e-05,-3.199999999999999e-05,2.4e-05
-8e-05,-0.00015999999999999999,2.45e-05
-8e-05,-0.00015999999999999999,2.5e-05
0.0,-4.8e-05,2.55e-05
-4.8000000000000015e-05,-4.8e-05,2.6e-05
6.4e-05,0.000128,2.65e-05
-6.4e-05,-3.199999999999999e-05,2.7e-05
-8e-05,-6.400000000000001e-05,2.75e-05
-3.2000000000000005e-05,-4.8e-05,2.8e-05
-3.2000000000000005e-05,-4.8e-05,2.85e-05
-3.2000000000000005e-05,-6.400000000000001e-05,2.9e-05
0.0,-1.600000000000001e-05,2.95e-05
0.0,-1.600000000000001e-05,3e-05
-1.5999999999999996e-05,-3.199999999999999e-05,3.05e-05
-1.5999999999999996e-05,-3.199999999999999e-05,3.1e-05
-4.8000000000000015e-05,-6.400000000000001e-05,3.15e-05
-4.8000000000000015e-05,-6.400000000000001e-05,3.2e-05
-3.2000000000000005e-05,-4.8e-05,3.25e-05
0.0,-1.600000000000001e-05,3.3e-05
1.5999999999999996e-05,-1.600000000000001e-05,3.35e-05
-6.4e-05,-9.6e-05,3.4e-05
-0.00012800000000000002,-0.000192,3.45e-05
-1.5999999999999996e-05,-3.199999999999999e-05,3.5e-05
1.5999999999999996e-05,1.5999999999999982e-05,3.55e-05
1.5999999999999996e-05,1.5999999999999982e-05,3.6e-05
-8e-05,-0.00011200000000000001,3.65e-05
-6.4e-05,-9.6e-05,3.7e-05
0.0,1.5999999999999982e-05,3.75e-05
-3.2000000000000005e-05,0.0,3.8e-05
-1.5999999999999996e-05,-1.600000000000001e-05,3.85e-05
-6.4e-05,-0.00011200000000000001,3.9e-05
-3.2000000000000005e-05,-7.999999999999999e-05,3.95e-05
-8e-05,-0.00011200000000000001,4e-05
0.0,3.199999999999999e-05,4.05e-05
3.199999999999999e-05,0.000128,4.1e-05
-4.8000000000000015e-05,0.0,4.15e-05
-6.4e-05,-3.199999999999999e-05,4.2e-05
-4.8000000000000015e-05,-4.8e-05,4.25e-05
-3.2000000000000005e-05,-3.199999999999999e-05,4.3e-05
-3.2000000000000005e-05,-3.199999999999999e-05,4.35e-05
-6.4e-05,-6.400000000000001e-05,4.4e-05
-4.8000000000000015e-05,-6.400000000000001e-05,4.45e-05
-3.2000000000000005e-05,-3.199999999999999e-05,4.5e-05
-3.2000000000000005e-05,-3.199999999999999e-05,4.55e-05
-8e-05,-9.6e-05,4.6e-05
-4.8000000000000015e-05,-7.999999999999999e-05,4.65e-05
-4.8000000000000015e-05,-6.400000000000001e-05,4.7e-05
-1.5999999999999996e-05,-4.8e-05,4.75e-05
0.0,-1.600000000000001e-05,4.8e-05
-9.599999999999999e-05,-0.00015999999999999999,4.85e-05
-6.4e-05,-0.00012800000000000002,4.9e-05
0.0,-1.600000000000001e-05,4.95e-05
0.0,-1.600000000000001e-05,5e-05
-4.8000000000000015e-05,-6.400000000000001e-05,5.05e-05
-0.000112,-0.000176,5.1e-05
-4.8000000000000015e-05,-6.400000000000001e-05,5.15e-05
3.199999999999999e-05,3.199999999999999e-05,5.2e-05
0.0,-1.600000000000001e-05,5.25e-05
-4.8000000000000015e-05,-6.400000000000001e-05,5.3e-05
-0.000112,-0.000176,5.35e-05
-1.5999999999999996e-05,-6.400000000000001e-05,5.4e-05
-8e-05,-0.00011200000000000001,5.45e-05
4.8e-05,7.999999999999999e-05,5.5e-05
3.199999999999999e-05,9.599999999999999e-05,5.55e-05
-3.2000000000000005e-05,1.5999999999999982e-05,5.6e-05
-6.4e-05,-6.400000000000001e-05,5.65e-05
-3.2000000000000005e-05,-6.400000000000001e-05,5.7e-05
-1.5999999999999996e-05,-3.199999999999999e-05,5.75e-05
1.5999999999999996e-05,0.0,5.8e-05
1.5999999999999996e-05,-1.600000000000001e-05,5.85e-05
-1.5999999999999996e-05,-6.400000000000001e-05,5.9e-05
-3.2000000000000005e-05,-7.999999999999999e-05,5.95e-05
-1.5999999999999996e-05,-4.8e-05,6e-05
0.0,-4.8e-05,6.05e-05
-3.2000000000000005e-05,-7.999999999999999e-05,6.1e-05
-3.2000000000000005e-05,-7.999999999999999e-05,6.15e-05
0.0,-4.8e-05,6.2e-05
1.5999999999999996e-05,-4.8e-05,6.25e-05
-8e-05,-0.00015999999999999999,6.3e-05
-3.2000000000000005e-05,-0.00012800000000000002,6.35e-05
1.5999999999999996e-05,-3.199999999999999e-05,6.4e-05
-1.5999999999999996e-05,-6.400000000000001e-05,6.45e-05
-1.5999999999999996e-05,-0.00011200000000000001,6.5e-05
-4.8000000000000015e-05,-0.00015999999999999999,6.55e-05
1.5999999999999996e-05,-6.400000000000001e-05,6.6e-05
3.199999999999999e-05,0.0,6.65e-05
-1.5999999999999996e-05,-6.400000000000001e-05,6.7e-05
-4.8000000000000015e-05,-0.00011200000000000001,6.75e-05
-8e-05,-0.000176,6.8e-05
3.199999999999999e-05,-3.199999999999999e-05,6.85e-05
-6.4e-05,-0.00012800000000000002,6.9e-05
0.000112,0.000128,6.95e-05
-3.2000000000000005e-05,0.0,7e-05
-9.599999999999999e-05,-0.00011200000000000001,7.05e-05
-3.2000000000000005e-05,-4.8e-05,7.1e-05
3.199999999999999e-05,0.0,7.15e-05
1.5999999999999996e-05,-1.600000000000001e-05,7.2e-05
-1.5999999999999996e-05,-4.8e-05,7.25e-05
-4.8000000000000015e-05,-6.400000000000001e-05,7.3e-05
-4.8000000000000015e-05,-9.6e-05,7.35e-05
0.0,-4.8e-05,7.4e-05
1.5999999999999996e-05,-3.199999999999999e-05,7.45e-05
0.0,-3.199999999999999e-05,7.5e-05
-3.2000000000000005e-05,-7.999999999999999e-05,7.55e-05
-1.5999999999999996e-05,-6.400000000000001e-05,7.6e-05
-1.5999999999999996e-05,-6.400000000000001e-05,7.65e-05
1.5999999999999996e-05,-1.600000000000001e-05,7.7e-05
-0.00014399999999999998,-0.00022400000000000002,7.75e-05
3.199999999999999e-05,-1.600000000000001e-05,7.8e-05
0.0,-3.199999999999999e-05,7.85e-05
-1.5999999999999996e-05,-3.199999999999999e-05,7.9e-05
-9.599999999999999e-05,-0.00015999999999999999,7.95e-05
-0.00012800000000000002,-0.00020800000000000001,8e-05
4.8e-05,-3.199999999999999e-05,8.05e-05
0.0,-4.8e-05,8.1e-05
1.5999999999999996e-05,-4.8e-05,8.15e-05
-4.8000000000000015e-05,-0.00012800000000000002,8.2e-05
-8e-05,-0.000176,8.25e-05
-3.2000000000000005e-05,-0.00011200000000000001,8.3e-05
-9.599999999999999e-05,-0.00014400000000000003,8.35e-05
7.999999999999999e-05,0.000128,8.4e-05
-3.2000000000000005e-05,1.5999999999999982e-05,8.45e-05
-8e-05,-3.199999999999999e-05,8.5e-05
-4.8000000000000015e-05,-1.600000000000001e-05,8.55e-05
-3.2000000000000005e-05,1.5999999999999982e-05,8.6e-05
-3.2000000000000005e-05,3.199999999999999e-05,8.65e-05
-6.4e-05,3.199999999999999e-05,8.7e-05
-4.8000000000000015e-05,6.4e-05,8.75e-05
-3.2000000000000005e-05,0.000112,8.8e-05
-4.8000000000000015e-05,9.599999999999999e-05,8.85e-05
-4.8000000000000015e-05,0.000112,8.9e-05
-6.4e-05,0.000128,8.95e-05
-8e-05,0.000144,9e-05
-6.4e-05,0.000208,9.05e-05
-6.4e-05,0.000272,9.1e-05
-3.2000000000000005e-05,0.00039999999999999996,9.15e-05
-0.00014399999999999998,0.000368,9.2e-05
-0.000112,0.000608,9.25e-05
-6.4e-05,0.0008160000000000001,9.3e-05
-0.00012800000000000002,0.0008960000000000001,9.35e-05
-0.000192,0.0009760000000000001,9.4e-05
-0.000192,0.001072,9.45e-05
-8e-05,0.001312,9.5e-05
-9.599999999999999e-05,0.0013599999999999999,9.55e-05
-0.00015999999999999999,0.001248,9.6e-05
-0.000256,0.000944,9.65e-05
-0.000256,0.000704,9.7e-05
-0.00015999999999999999,0.000448,9.75e-05
-0.000176,0.0,9.8e-05
-3.2000000000000005e-05,-0.0004,9.85e-05
-0.00012800000000000002,-0.00128,9.9e-05
-0.00020800000000000001,-0.002272,9.95e-05
-0.00014399999999999998,-0.0032,0.0001
-9.599999999999999e-05,-0.004256,0.0001005
0.0,-0.005328,0.000101
-3.2000000000000005e-05,-0.00664,0.0001015
3.199999999999999e-05,-0.007871999999999999,0.000102
1.5999999999999996e-05,-0.009215999999999998,0.0001025
0.000112,-0.01048,0.000103
0.000192,-0.011824,0.0001035
6.4e-05,-0.013264,0.000104
-0.00015999999999999999,-0.014799999999999999,0.0001045
-0.00022399999999999997,-0.016096,0.000105
-8e-05,-0.017104,0.0001055
-4.8000000000000015e-05,-0.018112,0.000106
-1.5999999999999996e-05,-0.018976,0.0001065
3.199999999999999e-05,-0.019264,0.000107
1.5999999999999996e-05,-0.019888,0.0001075
0.0,-0.020384,0.000108
-3.2000000000000005e-05,-0.020736,0.0001085
1.5999999999999996e-05,-0.020832,0.000109
0.00015999999999999999,-0.020656,0.0001095
0.000176,-0.020528,0.00011
0.000176,-0.020304000000000003,0.0001105
6.4e-05,-0.02016,0.000111
9.6e-05,-0.019712,0.0001115
6.4e-05,-0.019248,0.000112
1.5999999999999996e-05,-0.018688,0.0001125
0.000112,-0.017904,0.000113
-8e-05,-0.017424000000000002,0.0001135
-0.00014399999999999998,-0.016848000000000002,0.000114
-8e-05,-0.016144000000000002,0.0001145
-4.8000000000000015e-05,-0.01552,0.000115
-4.8000000000000015e-05,-0.015056,0.0001155
-3.2000000000000005e-05,-0.014735999999999999,0.000116
-3.2000000000000005e-05,-0.014575999999999999,0.0001165
0.0,-0.014511999999999999,0.000117
6.4e-05,-0.01456,0.0001175
0.000128,-0.014719999999999999,0.000118
9.6e-05,-0.01504,0.0001185
6.4e-05,-0.015423999999999998,0.000119
7.999999999999999e-05,-0.015824,0.0001195
6.4e-05,-0.016256,0.00012
0.0,-0.016784,0.0001205
-6.4e-05,-0.017264,0.000121
3.199999999999999e-05,-0.017472,0.0001215
0.0,-0.017824,0.000122
-0.000112,-0.018192,0.0001225
-0.000192,-0.018416000000000002,0.000123
-0.000112,-0.0184,0.0001235
0.0,-0.018160000000000003,0.000124
0.0,-0.017968,0.0001245
-1.5999999999999996e-05,-0.01768,0.000125
-0.000112,-0.017408,0.0001255
-3.2000000000000005e-05,-0.016848000000000002,0.000126
-3.2000000000000005e-05,-0.016336,0.0001265
7.999999999999999e-05,-0.015616,0.000127
0.00015999999999999999,-0.015087999999999999,0.0001275
3.199999999999999e-05,-0.014863999999999999,0.000128
0.0,-0.014655999999999999,0.0001285
-1.5999999999999996e-05,-0.014544,0.000129
1.5999999999999996e-05,-0.01448,0.0001295
1.5999999999999996e-05,-0.014544,0.00013
1.5999999999999996e-05,-0.014719999999999999,0.0001305
-1.5999999999999996e-05,-0.01504,0.000131
-8e-05,-0.015408,0.0001315
-0.000112,-0.015792,0.000132
-0.00012800000000000002,-0.01616,0.0001325
-8e-05,-0.016464,0.000133
-8e-05,-0.016800000000000002,0.0001335
-8e-05,-0.017072,0.000134
-4.8000000000000015e-05,-0.017264,0.0001345
-9.599999999999999e-05,-0.017488,0.000135
-0.000112,-0.017536,0.0001355
4.8e-05,-0.017232,0.000136
9.6e-05,-0.016944,0.0001365
1.5999999999999996e-05,-0.016752,0.000137
-3.2000000000000005e-05,-0.016464,0.0001375
1.5999999999999996e-05,-0.016048,0.000138
6.4e-05,-0.01568,0.0001385
3.199999999999999e-05,-0.015408,0.000139
4.8e-05,-0.015264,0.0001395
-8e-05,-0.015312,0.00014
-1.5999999999999996e-05,-0.015168,0.0001405
-0.000112,-0.015279999999999998,0.000141
0.0,-0.015295999999999999,0.0001415
-1.5999999999999996e-05,-0.015616,0.000142
-8e-05,-0.016096,0.0001425
-0.00012800000000000002,-0.016608,0.000143
-8e-05,-0.017056,0.0001435
-6.4e-05,-0.017312,0.000144
-8e-05,-0.01744,0.0001445
-8e-05,-0.017504000000000002,0.000145
-4.8000000000000015e-05,-0.017472,0.0001455
-4.8000000000000015e-05,-0.017392,0.000146
-3.2000000000000005e-05,-0.017296000000000002,0.0001465
-1.5999999999999996e-05,-0.017216000000000002,0.000147
-1.5999999999999996e-05,-0.016976,0.0001475
1.5999999999999996e-05,-0.016592000000000003,0.000148
3.199999999999999e-05,-0.016176,0.0001485
1.5999999999999996e-05,-0.015824,0.000149
-8e-05,-0.015632,0.0001495
1.5999999999999996e-05,-0.015375999999999999,0.00015
6.4e-05,-0.015456,0.0001505
3.199999999999999e-05,-0.015776000000000002,0.000151
-6.4e-05,-0.016224000000000002,0.0001515
-6.4e-05,-0.016496,0.000152
0.0,-0.016592000000000003,0.0001525
1.5999999999999996e-05,-0.016672,0.000153
1.5999999999999996e-05,-0.016880000000000003,0.0001535
-8e-05,-0.017328,0.000154
-9.599999999999999e-05,-0.017568,0.0001545
-1.5999999999999996e-05,-0.017616,0.000155
-9.599999999999999e-05,-0.017712000000000002,0.0001555
6.4e-05,-0.017312,0.000156
-4.8000000000000015e-05,-0.017008000000000002,0.0001565
-8e-05,-0.016544,0.000157
-8e-05,-0.016128,0.0001575
-1.5999999999999996e-05,-0.01576,0.000158
-4.8000000000000015e-05,-0.015744,0.0001585
-3.2000000000000005e-05,-0.01576,0.000159
-1.5999999999999996e-05,-0.015776000000000002,0.0001595
1.5999999999999996e-05,-0.015808000000000003,0.00016
1.5999999999999996e-05,-0.015968,0.0001605
0.0,-0.016176,0.000161
0.0,-0.016368,0.0001615
3.199999999999999e-05,-0.016576,0.000162
6.4e-05,-0.016848000000000002,0.0001625
9.6e-05,-0.017136000000000002,0.000163
-1.5999999999999996e-05,-0.017584000000000002,0.0001635
-8e-05,-0.017712000000000002,0.000164
1.5999999999999996e-05,-0.017424000000000002,0.0001645
-1.5999999999999996e-05,-0.017216000000000002,0.000165
0.0,-0.017008000000000002,0.0001655
-0.000112,-0.016848000000000002,0.000166
-9.599999999999999e-05,-0.016432000000000002,0.0001665
-3.2000000000000005e-05,-0.016,0.000167
-8e-05,-0.015904,0.0001675
-8e-05,-0.015984,0.000168
-0.00014399999999999998,-0.016192,0.0001685
-4.8000000000000015e-05,-0.016176,0.000169
-0.000112,-0.016272000000000002,0.0001695
3.199999999999999e-05,-0.01624,0.00017
3.199999999999999e-05,-0.016448,0.0001705
-1.5999999999999996e-05,-0.016720000000000002,0.000171
-1.5999999999999996e-05,-0.016912,0.0001715
6.4e-05,-0.017072,0.000172
3.199999999999999e-05,-0.017376000000000003,0.0001725
6.4e-05,-0.017536,0.000173
4.8e-05,-0.017552,0.0001735
0.0,-0.017344000000000002,0.000174
1.5999999999999996e-05,-0.016880000000000003,0.0001745
0.0,-0.016560000000000002,0.000175
0.0,-0.016304000000000003,0.0001755
-3.2000000000000005e-05,-0.016176,0.000176
-4.8000000000000015e-05,-0.016176,0.0001765
-3.2000000000000005e-05,-0.016176,0.000177
-6.4e-05,-0.016256,0.0001775
-0.00012800000000000002,-0.0164,0.000178
-4.8000000000000015e-05,-0.016384,0.0001785
1.5999999999999996e-05,-0.016432000000000002,0.000179
0.0,-0.016608,0.0001795
-8e-05,-0.016912,0.00018
-8e-05,-0.017104,0.0001805
3.199999999999999e-05,-0.017248,0.000181
6.4e-05,-0.017408,0.0001815
0.0,-0.017488,0.000182
-3.2000000000000005e-05,-0.017376000000000003,0.0001825
-4.8000000000000015e-05,-0.01712,0.000183
-3.2000000000000005e-05,-0.016832,0.0001835
-4.8000000000000015e-05,-0.016496,0.000184
7.999999999999999e-05,-0.015904,0.0001845
-3.2000000000000005e-05,-0.01568,0.000185
-9.599999999999999e-05,-0.015503999999999999,0.0001855
-6.4e-05,-0.015439999999999999,0.000186
-6.4e-05,-0.015488,0.0001865
-4.8000000000000015e-05,-0.015503999999999999,0.000187
-3.2000000000000005e-05,-0.015536,0.0001875
-6.4e-05,-0.015551999999999998,0.000188
-9.599999999999999e-05,-0.015551999999999998,0.0001885
-9.599999999999999e-05,-0.015632,0.000189
-9.599999999999999e-05,-0.015824,0.0001895
-9.599999999999999e-05,-0.016064000000000002,0.00019
-6.4e-05,-0.01624,0.0001905
-8e-05,-0.016336,0.000191
-3.2000000000000005e-05,-0.016256,0.0001915
-8e-05,-0.016272000000000002,0.000192
-4.8000000000000015e-05,-0.016112,0.0001925
3.199999999999999e-05,-0.015808000000000003,0.000193
1.5999999999999996e-05,-0.015583999999999999,0.0001935
-4.8000000000000015e-05,-0.015439999999999999,0.000194
-8e-05,-0.015279999999999998,0.0001945
4.8e-05,-0.014912,0.000195
7.999999999999999e-05,-0.014704,0.0001955
6.4e-05,-0.014719999999999999,0.000196
1.5999999999999996e-05,-0.014832,0.0001965
-6.4e-05,-0.014879999999999999,0.000197
3.199999999999999e-05,-0.014495999999999998,0.0001975
0.0,-0.013999999999999999,0.000198
0.000128,-0.01312,0.0001985
0.0,-0.012591999999999999,0.000199
-8e-05,-0.012159999999999999,0.0001995
-9.599999999999999e-05,-0.011711999999999998,0.0002
-3.2000000000000005e-05,-0.011215999999999999,0.0002005
-3.2000000000000005e-05,-0.010608,0.000201
-4.8000000000000015e-05,-0.009824,0.0002015
-8e-05,-0.008912,0.000202
-9.599999999999999e-05,-0.008128,0.0002025
-9.599999999999999e-05,-0.007472,0.000203
-6.4e-05,-0.006992,0.0002035
-3.2000000000000005e-05,-0.006528,0.000204
0.0,-0.006016,0.0002045
-3.2000000000000005e-05,-0.005552,0.000205
0.0,-0.005072,0.0002055
-1.5999999999999996e-05,-0.00472,0.000206
-6.4e-05,-0.004352,0.0002065
3.199999999999999e-05,-0.003776,0.000207
4.8e-05,-0.003264,0.0002075
1.5999999999999996e-05,-0.002752,0.000208
-8e-05,-0.002288,0.0002085
-8e-05,-0.001712,0.000209
0.0,-0.001072,0.0002095
1.5999999999999996e-05,-0.0005920000000000001,0.00021
-3.2000000000000005e-05,-0.000256,0.0002105
-0.00012800000000000002,-0.000192,0.000211
-8e-05,-3.199999999999999e-05,0.0002115
-3.2000000000000005e-05,6.4e-05,0.000212
-3.2000000000000005e-05,0.000112,0.0002125
6.4e-05,0.000288,0.000213
-4.8000000000000015e-05,0.000128,0.0002135
-8e-05,-6.400000000000001e-05,0.000214
-4.8000000000000015e-05,-0.000304,0.0002145
-1.5999999999999996e-05,-0.000608,0.000215
0.0,-0.0009760000000000001,0.0002155
-3.2000000000000005e-05,-0.001328,0.000216
0.0,-0.001392,0.0002165
-1.5999999999999996e-05,-0.001312,0.000217
0.0,-0.0011840000000000002,0.0002175
-1.5999999999999996e-05,-0.001152,0.000218
-1.5999999999999996e-05,-0.001232,0.0002185
-1.5999999999999996e-05,-0.001408,0.000219
0.0,-0.001616,0.0002195
3.199999999999999e-05,-0.001776,0.00022
-8e-05,-0.002016,0.0002205
-3.2000000000000005e-05,-0.002,0.000221
6.4e-05,-0.001872,0.0002215
1.5999999999999996e-05,-0.0019039999999999999,0.000222
-4.8000000000000015e-05,-0.002016,0.0002225
-9.599999999999999e-05,-0.0020800000000000003,0.000223
-3.2000000000000005e-05,-0.001968,0.0002235
3.199999999999999e-05,-0.001872,0.000224
0.0,-0.00184,0.0002245
-4.8000000000000015e-05,-0.0017280000000000002,0.000225
-0.00012800000000000002,-0.001552,0.0002255
-8e-05,-0.001152,0.000226
-0.000176,-0.000992,0.0002265
1.5999999999999996e-05,-0.0005120000000000001,0.000227
1.5999999999999996e-05,-0.000368,0.0002275
-8e-05,-0.0004,0.000228
-8e-05,-0.00035200000000000005,0.0002285
-4.8000000000000015e-05,-0.00035200000000000005,0.000229
-3.2000000000000005e-05,-0.00048,0.0002295
-1.5999999999999996e-05,-0.0007199999999999999,0.00023
1.5999999999999996e-05,-0.0009760000000000001,0.0002305
1.5999999999999996e-05,-0.001216,0.000231
0.0,-0.001376,0.0002315
-1.5999999999999996e-05,-0.00144,0.000232
-3.2000000000000005e-05,-0.00144,0.0002325
-3.2000000000000005e-05,-0.00136,0.000233
0.0,-0.001312,0.0002335
1.5999999999999996e-05,-0.001296,0.000234
-6.4e-05,-0.001472,0.0002345
-0.00012800000000000002,-0.001552,0.000235
-4.8000000000000015e-05,-0.001456,0.0002355
-1.5999999999999996e-05,-0.001392,0.000236
-3.2000000000000005e-05,-0.00136,0.0002365
-8e-05,-0.001408,0.000237
-9.599999999999999e-05,-0.001328,0.0002375
-3.2000000000000005e-05,-0.0011840000000000002,0.000238
0.0,-0.0012000000000000001,0.0002385
1.5999999999999996e-05,-0.001392,0.000239
-4.8000000000000015e-05,-0.001712,0.0002395
-3.2000000000000005e-05,-0.001776,0.00024
1.5999999999999996e-05,-0.001696,0.0002405
0.0,-0.0015680000000000002,0.000241
0.000112,-0.00128,0.0002415
-1.5999999999999996e-05,-0.00128,0.000242
-4.8000000000000015e-05,-0.001248,0.0002425
-3.2000000000000005e-05,-0.001168,0.000243
-1.5999999999999996e-05,-0.001152,0.0002435
0.0,-0.0012640000000000001,0.000244
1.5999999999999996e-05,-0.00144,0.0002445
1.5999999999999996e-05,-0.0016480000000000002,0.000245
0.0,-0.0018080000000000001,0.0002455
-1.5999999999999996e-05,-0.001856,0.000246
-1.5999999999999996e-05,-0.00184,0.0002465
0.0,-0.001696,0.000247
-3.2000000000000005e-05,-0.001616,0.0002475
-3.2000000000000005e-05,-0.0015680000000000002,0.000248
-1.5999999999999996e-05,-0.001536,0.0002485
-8e-05,-0.001616,0.000249
-9.599999999999999e-05,-0.0016,0.0002495
-1.5999999999999996e-05,-0.00136,0.00025
3.199999999999999e-05,-0.001088,0.0002505
-9.599999999999999e-05,-0.0011040000000000002,0.000251
-0.00012800000000000002,-0.001024,0.0002515
-3.2000000000000005e-05,-0.0007999999999999999,0.000252
4.8e-05,-0.0006559999999999999,0.0002525
1.5999999999999996e-05,-0.0006720000000000001,0.000253
-1.5999999999999996e-05,-0.000704,0.0002535
-9.599999999999999e-05,-0.0008160000000000001,0.000254
-3.2000000000000005e-05,-0.000768,0.0002545
-9.599999999999999e-05,-0.0008800000000000001,0.000255
1.5999999999999996e-05,-0.0007360000000000001,0.0002555
0.0,-0.0008160000000000001,0.000256
-9.599999999999999e-05,-0.001088,0.0002565
-8e-05,-0.001152,0.000257
-8e-05,-0.0010400000000000001,0.0002575
-4.8000000000000015e-05,-0.000768,0.000258
-8e-05,-0.0007199999999999999,0.0002585
-0.000112,-0.000928,0.000259
-9.599999999999999e-05,-0.0011040000000000002,0.0002595
-4.8000000000000015e-05,-0.001136,0.00026
-4.8000000000000015e-05,-0.001168,0.0002605
-4.8000000000000015e-05,-0.0011840000000000002,0.000261
-3.2000000000000005e-05,-0.0011840000000000002,0.0002615
-4.8000000000000015e-05,-0.0011040000000000002,0.000262
-3.2000000000000005e-05,-0.0008960000000000001,0.0002625
1.5999999999999996e-05,-0.0006559999999999999,0.000263
-8e-05,-0.0006399999999999999,0.0002635
-4.8000000000000015e-05,-0.000448,0.000264
0.0,-0.000272,0.0002645
-6.4e-05,-0.000256,0.000265
-0.000112,-0.000288,0.0002655
-0.00012800000000000002,-0.000336,0.000266
-1.5999999999999996e-05,-0.000192,0.0002665
-3.2000000000000005e-05,-0.000192,0.000267
-4.8000000000000015e-05,-0.000272,0.0002675
-0.00012800000000000002,-0.00038399999999999996,0.000268
-0.00014399999999999998,-0.0004,0.0002685
-6.4e-05,-0.000272,0.000269
-0.00012800000000000002,-0.00038399999999999996,0.0002695
3.199999999999999e-05,-0.000272,0.00027
-3.2000000000000005e-05,-0.0006559999999999999,0.0002705
-0.000112,-0.0010400000000000001,0.000271
-0.000112,-0.001168,0.0002715
-6.4e-05,-0.001072,0.000272
-6.4e-05,-0.0008160000000000001,0.0002725
-4.8000000000000015e-05,-0.000544,0.000273
-9.599999999999999e-05,-0.00035200000000000005,0.0002735
-4.8000000000000015e-05,-0.00022400000000000002,0.000274
-9.599999999999999e-05,-0.000288,0.0002745
-6.4e-05,-0.000304,0.000275
-4.8000000000000015e-05,-0.000368,0.0002755
-6.4e-05,-0.00046400000000000006,0.000276
-4.8000000000000015e-05,-0.000528,0.0002765
-4.8000000000000015e-05,-0.000528,0.000277
-1.5999999999999996e-05,-0.00056,0.0002775
-9.599999999999999e-05,-0.0007199999999999999,0.000278
-6.4e-05,-0.0007199999999999999,0.0002785
-1.5999999999999996e-05,-0.0007199999999999999,0.000279
-1.5999999999999996e-05,-0.0009760000000000001,0.0002795
-8e-05,-0.001312,0.00028
-8e-05,-0.0015040000000000001,0.0002805
0.0,-0.00152,0.000281
1.5999999999999996e-05,-0.001392,0.0002815
-4.8000000000000015e-05,-0.0011840000000000002,0.000282
-0.000112,-0.0009760000000000001,0.0002825
-0.000112,-0.0007360000000000001,0.000283
-4.8000000000000015e-05,-0.000528,0.0002835
-0.00015999999999999999,-0.0006559999999999999,0.000284
3.199999999999999e-05,-0.0005120000000000001,0.0002845
-6.4e-05,-0.000768,0.000285
-0.000112,-0.0009760000000000001,0.0002855
-9.599999999999999e-05,-0.001056,0.000286
-8e-05,-0.0009760000000000001,0.0002865
-8e-05,-0.0008960000000000001,0.000287
-4.8000000000000015e-05,-0.000848,0.0002875
-6.4e-05,-0.001024,0.000288
-4.8000000000000015e-05,-0.0012000000000000001,0.0002885
-1.5999999999999996e-05,-0.001392,0.000289
-1.5999999999999996e-05,-0.001488,0.0002895
-3.2000000000000005e-05,-0.001472,0.00029
-3.2000000000000005e-05,-0.0013440000000000001,0.0002905
-4.8000000000000015e-05,-0.001232,0.000291
-3.2000000000000005e-05,-0.001024,0.0002915
-4.8000000000000015e-05,-0.000864,0.000292
-0.000112,-0.000864,0.0002925
-1.5999999999999996e-05,-0.0007520000000000001,0.000293
3.199999999999999e-05,-0.0007520000000000001,0.0002935
-1.5999999999999996e-05,-0.000848,0.000294
-0.000112,-0.0009760000000000001,0.0002945
-9.599999999999999e-05,-0.0009760000000000001,0.000295
1.5999999999999996e-05,-0.0009600000000000001,0.0002955
3.199999999999999e-05,-0.001056,0.000296
-1.5999999999999996e-05,-0.00128,0.0002965
-6.4e-05,-0.00152,0.000297
-8e-05,-0.0016640000000000001,0.0002975
-3.2000000000000005e-05,-0.001696,0.000298
-1.5999999999999996e-05,-0.0016640000000000001,0.0002985
0.000128,-0.00136,0.000299
-1.5999999999999996e-05,-0.0013440000000000001,0.0002995
-8e-05,-0.001232,0.0003
-4.8000000000000015e-05,-0.001088,0.0003005
-4.8000000000000015e-05,-0.000992,0.000301
-1.5999999999999996e-05,-0.0008800000000000001,0.0003015
-3.2000000000000005e-05,-0.0008320000000000001,0.000302
-4.8000000000000015e-05,-0.000768,0.0003025
-3.2000000000000005e-05,-0.000688,0.000303
-1.5999999999999996e-05,-0.0005920000000000001,0.0003035
-4.8000000000000015e-05,-0.0004959999999999999,0.000304
-3.2000000000000005e-05,-0.00038399999999999996,0.0003045
-3.2000000000000005e-05,-0.0004,0.000305
-4.8000000000000015e-05,-0.000528,0.0003055
-4.8000000000000015e-05,-0.000624,0.000306
-4.8000000000000015e-05,-0.000688,0.0003065
-9.599999999999999e-05,-0.0007520000000000001,0.000307
0.0,-0.000528,0.0003075
1.5999999999999996e-05,-0.000336,0.000308
-4.8000000000000015e-05,-0.000176,0.0003085
-0.00012800000000000002,-6.400000000000001e-05,0.000309
-0.000112,9.599999999999999e-05,0.0003095
0.0,0.00023999999999999998,0.00031
0.0,0.000192,0.0003105
-1.5999999999999996e-05,0.000128,0.000311
-0.000112,-7.999999999999999e-05,0.0003115
-9.599999999999999e-05,-6.400000000000001e-05,0.000312
-3.2000000000000005e-05,-1.600000000000001e-05,0.0003125
-3.2000000000000005e-05,3.199999999999999e-05,0.000313
4.8e-05,0.00015999999999999999,0.0003135
-3.2000000000000005e-05,7.999999999999999e-05,0.000314
-6.4e-05,0.0,0.0003145
-4.8000000000000015e-05,-9.6e-05,0.000315
-6.4e-05,-0.00022400000000000002,0.0003155
-1.5999999999999996e-05,-0.000272,0.000316
-4.8000000000000015e-05,-0.000416,0.0003165
-4.8000000000000015e-05,-0.00043200000000000004,0.000317
-4.8000000000000015e-05,-0.0004,0.0003175
-3.2000000000000005e-05,-0.00032,0.000318
-4.8000000000000015e-05,-0.00020800000000000001,0.0003185
-8e-05,-0.00014400000000000003,0.000319
-4.8000000000000015e-05,0.0,0.0003195
-4.8000000000000015e-05,1.5999999999999982e-05,0.00032
0.0,3.199999999999999e-05,0.0003205
-9.599999999999999e-05,-0.00015999999999999999,0.000321
-6.4e-05,-0.000176,0.0003215
3.199999999999999e-05,-6.400000000000001e-05,0.000322
0.0,-9.6e-05,0.0003225
-8e-05,-0.000272,0.000323
-0.00014399999999999998,-0.000416,0.0003235
-8e-05,-0.000416,0.000324
3.199999999999999e-05,-0.000368,0.0003245
0.0,-0.00048,0.000325
-3.2000000000000005e-05,-0.000608,0.0003255
-0.000112,-0.0007360000000000001,0.000326
-6.4e-05,-0.00056,0.0003265
-0.00012800000000000002,-0.000416,0.000327
4.8e-05,-1.600000000000001e-05,0.0003275
1.5999999999999996e-05,9.599999999999999e-05,0.000328
-9.599999999999999e-05,3.199999999999999e-05,0.0003285
-9.599999999999999e-05,6.4e-05,0.000329
-6.4e-05,0.000176,0.0003295
-6.4e-05,0.000224,0.00033
-3.2000000000000005e-05,0.00015999999999999999,0.0003305
-4.8000000000000015e-05,4.8e-05,0.000331
-6.4e-05,-9.6e-05,0.0003315
-4.8000000000000015e-05,-0.000176,0.000332
-4.8000000000000015e-05,-0.000256,0.0003325
-4.8000000000000015e-05,-0.00035200000000000005,0.000333
-4.8000000000000015e-05,-0.000368,0.0003335
-1.5999999999999996e-05,-0.000272,0.000334
-3.2000000000000005e-05,-0.00020800000000000001,0.0003345
-3.2000000000000005e-05,-0.00015999999999999999,0.000335
-9.599999999999999e-05,-0.000192,0.0003355
-4.8000000000000015e-05,-0.00011200000000000001,0.000336
1.5999999999999996e-05,6.4e-05,0.0003365
-1.5999999999999996e-05,9.599999999999999e-05,0.000337
-8e-05,3.199999999999999e-05,0.0003375
-0.00015999999999999999,-0.00012800000000000002,0.000338
-4.8000000000000015e-05,-7.999999999999999e-05,0.0003385
1.5999999999999996e-05,-0.00012800000000000002,0.000339
1.5999999999999996e-05,-0.000288,0.0003395
-3.2000000000000005e-05,-0.00038399999999999996,0.00034
-9.599999999999999e-05,-0.000448,0.0003405
-3.2000000000000005e-05,-0.00032,0.000341
-0.00012800000000000002,-0.00038399999999999996,0.0003415
3.199999999999999e-05,-0.00015999999999999999,0.000342
-4.8000000000000015e-05,-0.00015999999999999999,0.0003425
-9.599999999999999e-05,-0.000176,0.000343
-8e-05,-0.00015999999999999999,0.0003435
-4.8000000000000015e-05,-0.00011200000000000001,0.000344
-8e-05,-7.999999999999999e-05,0.0003445
-4.8000000000000015e-05,1.5999999999999982e-05,0.000345
-4.8000000000000015e-05,9.599999999999999e-05,0.0003455
-8e-05,0.000128,0.000346
-4.8000000000000015e-05,0.00015999999999999999,0.0003465
-6.4e-05,7.999999999999999e-05,0.000347
-8e-05,-3.199999999999999e-05,0.0003475
-9.599999999999999e-05,-0.000176,0.000348
-8e-05,-0.000256,0.0003485
-3.2000000000000005e-05,-0.000256,0.000349
-4.8000000000000015e-05,-0.00032,0.0003495
-0.00012800000000000002,-0.0004,0.00035
-6.4e-05,-0.000192,0.0003505
1.5999999999999996e-05,4.8e-05,0.000351
-1.5999999999999996e-05,6.4e-05,0.0003515
-0.00012800000000000002,-0.00012800000000000002,0.000352
-0.00012800000000000002,-0.000272,0.0003525
-4.8000000000000015e-05,-0.000336,0.000353
0.0,-0.00038399999999999996,0.0003535
-3.2000000000000005e-05,-0.00046400000000000006,0.000354
-8e-05,-0.0004959999999999999,0.0003545
-8e-05,-0.00043200000000000004,0.000355
-4.8000000000000015e-05,-0.00020800000000000001,0.0003555
-0.00015999999999999999,-0.00022400000000000002,0.000356
4.8e-05,9.599999999999999e-05,0.0003565
-1.5999999999999996e-05,-1.600000000000001e-05,0.000357
-9.599999999999999e-05,-0.00022400000000000002,0.0003575
-9.599999999999999e-05,-0.000256,0.000358
-6.4e-05,-0.00015999999999999999,0.0003585
-8e-05,-1.600000000000001e-05,0.000359
-9.599999999999999e-05,0.00015999999999999999,0.0003595
-9.599999999999999e-05,0.000384,0.00036
-9.599999999999999e-05,0.00048,0.0003605
-9.599999999999999e-05,0.000432,0.000361
-8e-05,0.000304,0.0003615
-9.599999999999999e-05,6.4e-05,0.000362
-9.599999999999999e-05,-0.000192,0.0003625
-6.4e-05,-0.000288,0.000363
0.0,-0.000288,0.0003635
-4.8000000000000015e-05,-0.000304,0.000364
-0.000112,-0.00038399999999999996,0.0003645
-4.8000000000000015e-05,-0.000288,0.000365
0.0,-0.00015999999999999999,0.0003655
0.0,-0.00012800000000000002,0.000366
-4.8000000000000015e-05,-0.00023999999999999998,0.0003665
-9.599999999999999e-05,-0.0004,0.000367
-1.5999999999999996e-05,-0.00038399999999999996,0.0003675
3.199999999999999e-05,-0.0004,0.000368
1.5999999999999996e-05,-0.00046400000000000006,0.0003685
-6.4e-05,-0.000528,0.000369
-4.8000000000000015e-05,-0.00043200000000000004,0.0003695
1.5999999999999996e-05,-0.00023999999999999998,0.00037
-9.599999999999999e-05,-0.00022400000000000002,0.0003705
9.6e-05,0.000128,0.000371
-6.4e-05,-4.8e-05,0.0003715
-8e-05,-0.00014400000000000003,0.000372
-6.4e-05,-0.00022400000000000002,0.0003725
-4.8000000000000015e-05,-0.00035200000000000005,0.000373
-6.4e-05,-0.0004959999999999999,0.0003735
-6.4e-05,-0.0005759999999999999,0.000374
-4.8000000000000015e-05,-0.00056,0.0003745
-8e-05,-0.00056,0.000375
-4.8000000000000015e-05,-0.00043200000000000004,0.0003755
-1.5999999999999996e-05,-0.000256,0.000376
-3.2000000000000005e-05,-0.00011200000000000001,0.0003765
-4.8000000000000015e-05,0.0,0.000377
-6.4e-05,6.4e-05,0.0003775
-4.8000000000000015e-05,0.000128,0.000378
-6.4e-05,9.599999999999999e-05,0.0003785
-0.00012800000000000002,3.199999999999999e-05,0.000379
-3.2000000000000005e-05,0.000224,0.0003795
-1.5999999999999996e-05,0.000272,0.00038
-4.8000000000000015e-05,0.00015999999999999999,0.0003805
-0.00012800000000000002,-9.6e-05,0.000381
-8e-05,-0.000192,0.0003815
1.5999999999999996e-05,-0.00015999999999999999,0.000382
1.5999999999999996e-05,-0.00023999999999999998,0.0003825
-1.5999999999999996e-05,-0.00035200000000000005,0.000383
-9.599999999999999e-05,-0.00048,0.0003835
-8e-05,-0.0004,0.000384
-6.4e-05,-0.000256,0.0003845
-6.4e-05,-0.00014400000000000003,0.000385
4.8e-05,7.999999999999999e-05,0.0003855
-6.4e-05,-0.00011200000000000001,0.000386
-8e-05,-0.00020800000000000001,0.0003865
-4.8000000000000015e-05,-0.000256,0.000387
1.5999999999999996e-05,-0.00022400000000000002,0.0003875
-3.2000000000000005e-05,-0.000256,0.000388
-4.8000000000000015e-05,-0.00023999999999999998,0.0003885
-6.4e-05,-0.000176,0.000389
-1.5999999999999996e-05,-9.6e-05,0.0003895
-4.8000000000000015e-05,-9.6e-05,0.00039
-6.4e-05,-0.00012800000000000002,0.0003905
-3.2000000000000005e-05,-0.000176,0.000391
-8e-05,-0.000336,0.0003915
-6.4e-05,-0.000368,0.000392
-3.2000000000000005e-05,-0.000288,0.0003925
-8e-05,-0.000304,0.000393
-0.000112,-0.000304,0.0003935
-6.4e-05,-0.000256,0.000394
-4.8000000000000015e-05,-0.000256,0.0003945
-6.4e-05,-0.00032,0.000395
-0.00012800000000000002,-0.00048,0.0003955
-9.599999999999999e-05,-0.00048,0.000396
-3.2000000000000005e-05,-0.000304,0.0003965
-3.2000000000000005e-05,-0.000176,0.000397
-6.4e-05,-3.199999999999999e-05,0.0003975
-0.000176,3.199999999999999e-05,0.000398
-0.00012800000000000002,0.000224,0.0003985
-0.00012800000000000002,0.000208,0.000399
-9.599999999999999e-05,0.000144,0.0003995
-1.5999999999999996e-05,0.000128,0.0004
-0.00012800000000000002,-0.00014400000000000003,0.0004005
-0.00015999999999999999,-0.000304,0.000401
-9.599999999999999e-05,-0.00032,0.0004015
-8e-05,-0.000288,0.000402
-0.00012800000000000002,-0.000192,0.0004025
-0.00015999999999999999,-4.8e-05,0.000403
-0.00014399999999999998,9.599999999999999e-05,0.0004035
-0.00014399999999999998,0.000176,0.000404
-0.00014399999999999998,0.00015999999999999999,0.0004045
-0.00012800000000000002,9.599999999999999e-05,0.000405
-0.00015999999999999999,-6.400000000000001e-05,0.0004055
-0.00014399999999999998,-0.00015999999999999999,0.000406
-0.000112,-0.000192,0.0004065
-8e-05,-0.00012800000000000002,0.000407
-0.000176,-0.00012800000000000002,0.0004075
-0.000176,4.8e-05,0.000408
-8e-05,0.00033600000000000004,0.0004085
-8e-05,0.000432,0.000409
-0.00012800000000000002,0.000384,0.0004095
-0.00020800000000000001,0.000192,0.00041
-0.00012800000000000002,0.000176,0.0004105
-6.4e-05,0.000192,0.000411
-9.599999999999999e-05,6.4e-05,0.0004115
-0.000176,-7.999999999999999e-05,0.000412
-0.000272,-0.00022400000000000002,0.0004125
-0.00023999999999999998,-0.00012800000000000002,0.000413
-0.000384,-0.000192,0.0004135
-0.000272,0.00015999999999999999,0.000414
-0.000432,0.000224,0.0004145
-0.000656,0.000192,0.000415
-0.000864,9.599999999999999e-05,0.0004155
-0.0009440000000000001,0.00015999999999999999,0.000416
-0.0011200000000000001,0.000192,0.0004165
-0.0013440000000000001,0.000256,0.000417
-0.001616,0.000256,0.0004175
-0.0019679999999999997,0.000176,0.000418
-0.002224,0.00015999999999999999,0.0004185
-0.0025599999999999998,1.5999999999999982e-05,0.000419
-0.002864,-4.8e-05,0.0004195
-0.0032159999999999997,-0.00011200000000000001,0.00042
-0.0036,-0.00020800000000000001,0.0004205
-0.003984,-0.000256,0.000421
-0.004384,-0.000256,0.0004215
-0.004784,-0.00023999999999999998,0.000422
-0.005008,-1.600000000000001e-05,0.0004225
-0.005328,4.8e-05,0.000423
-0.005648,-3.199999999999999e-05,0.0004235
-0.0060479999999999996,-0.00020800000000000001,0.000424
-0.006288,-0.000288,0.0004245
-0.0063679999999999995,-0.00015999999999999999,0.000425
-0.006448,-6.400000000000001e-05,0.0004255
-0.006592,-0.00011200000000000001,0.000426
-0.00672,-0.000192,0.0004265
-0.006768,-0.000176,0.000427
-0.00672,-1.600000000000001e-05,0.0004275
-0.006704,1.5999999999999982e-05,0.000428
-0.006496,0.000176,0.0004285
-0.0065119999999999996,0.0,0.000429
-0.006496,-0.000176,0.0004295
-0.0064,-0.00020800000000000001,0.00043
-0.006304,-0.00020800000000000001,0.0004305
-0.00624,-0.00014400000000000003,0.000431
-0.006176,-1.600000000000001e-05,0.0004315
-0.006176,9.599999999999999e-05,0.000432
-0.006176,0.000144,0.0004325
-0.006176,0.00015999999999999999,0.000433
-0.00616,6.4e-05,0.0004335
-0.0062239999999999995,-9.6e-05,0.000434
-0.00632,-0.00022400000000000002,0.0004345
-0.006416,-0.00020800000000000001,0.000435
-0.006464,-0.00011200000000000001,0.0004355
-0.006608,-7.999999999999999e-05,0.000436
-0.00672,-3.199999999999999e-05,0.0004365
-0.0066879999999999995,0.00015999999999999999,0.000437
-0.006736,0.000208,0.0004375
-0.006848,4.8e-05,0.000438
-0.006944,-0.00015999999999999999,0.0004385
-0.006912,-0.000192,0.000439
-0.0068,-9.6e-05,0.0004395
-0.006816,-0.00011200000000000001,0.00044
-0.006816,-9.6e-05,0.0004405
-0.006896,-0.00015999999999999999,0.000441
-0.0068319999999999995,-4.8e-05,0.0004415
-0.006816,4.8e-05,0.000442
-0.00672,0.000176,0.0004425
-0.006656,0.00015999999999999999,0.000443
-0.006784,-0.00011200000000000001,0.0004435
-0.0068319999999999995,-0.000288,0.000444
-0.006816,-0.000304,0.0004445
-0.0068319999999999995,-0.000256,0.000445
-0.006896,-0.000192,0.0004455
-0.0069759999999999996,-4.8e-05,0.000446
-0.007072,0.000128,0.0004465
-0.00712,0.000304,0.000447
-0.007184,0.000432,0.0004475
-0.007248,0.000464,0.000448
-0.0072959999999999995,0.000384,0.0004485
-0.007312,0.000256,0.000449
-0.00728,0.000128,0.0004495
-0.00728,0.0,0.00045
-0.00736,-0.000192,0.0004505
-0.007248,-6.400000000000001e-05,0.000451
-0.0071519999999999995,7.999999999999999e-05,0.0004515
-0.007136,0.000112,0.000452
-0.007136,7.999999999999999e-05,0.0004525
-0.007184,-9.6e-05,0.000453
-0.00712,-6.400000000000001e-05,0.0004535
-0.007088,-7.999999999999999e-05,0.000454
-0.007104,-0.000192,0.0004545
-0.007136,-0.00022400000000000002,0.000455
-0.007248,-0.000272,0.0004555
-0.007248,-6.400000000000001e-05,0.000456
-0.007424,-4.8e-05,0.0004565
-0.007344,0.000272,0.000457
-0.007456,0.00031999999999999997,0.0004575
-0.007568,0.000272,0.000458
-0.007584,0.000256,0.0004585
-0.007584,0.000256,0.000459
-0.007632,7.999999999999999e-05,0.0004595
-0.007648,-7.999999999999999e-05,0.00046
-0.0076159999999999995,-0.00012800000000000002,0.0004605
-0.007584,-0.00015999999999999999,0.000461
-0.007584,-0.00015999999999999999,0.0004615
-0.007568,-0.00015999999999999999,0.000462
-0.007568,-0.00014400000000000003,0.0004625
-0.007584,-7.999999999999999e-05,0.000463
-0.0076,4.8e-05,0.0004635
-0.0076,0.000176,0.000464
-0.00768,0.000176,0.0004645
-0.007808,7.999999999999999e-05,0.000465
-0.00776,0.00015999999999999999,0.0004655
-0.007775999999999999,0.000128,0.000466
-0.007824000000000001,1.5999999999999982e-05,0.0004665
-0.00792,-0.000192,0.000467
-0.007984000000000002,-0.000336,0.0004675
-0.007904000000000001,-0.00023999999999999998,0.000468
-0.007888000000000001,-0.00015999999999999999,0.0004685
-0.007872,-9.6e-05,0.000469
-0.00792,-0.00015999999999999999,0.0004695
-0.007904000000000001,-0.00012800000000000002,0.00047
-0.007824000000000001,-4.8e-05,0.0004705
-0.007904000000000001,-4.8e-05,0.000471
-0.007744,0.000208,0.0004715
-0.007856,9.599999999999999e-05,0.000472
-0.00792,-3.199999999999999e-05,0.0004725
-0.007936,-7.999999999999999e-05,0.000473
-0.007936,-4.8e-05,0.0004735
-0.007952,3.199999999999999e-05,0.000474
-0.007984000000000002,9.599999999999999e-05,0.0004745
-0.008016,9.599999999999999e-05,0.000475
-0.00808,1.5999999999999982e-05,0.0004755
-0.00808,-4.8e-05,0.000476
-0.008112000000000001,-0.00014400000000000003,0.0004765
-0.008096,-0.00020800000000000001,0.000477
-0.008064,-0.000288,0.0004775
-0.008,-0.000256,0.000478
-0.007984000000000002,-0.00020800000000000001,0.0004785
-0.008032000000000001,-0.00012800000000000002,0.000479
-0.00808,-3.199999999999999e-05,0.0004795
-0.007936,0.000256,0.00048
-0.007968000000000001,0.000272,0.0004805
-0.008,0.000208,0.000481
-0.008128000000000002,0.0,0.0004815
-0.00816,-9.6e-05,0.000482
-0.008128000000000002,-0.00011200000000000001,0.0004825
-0.008192000000000001,-0.00020800000000000001,0.000483
-0.008224,-0.00023999999999999998,0.0004835
-0.008320000000000001,-0.000288,0.000484
-0.008320000000000001,-7.999999999999999e-05,0.0004845
-0.008320000000000001,4.8e-05,0.000485
-0.008320000000000001,9.599999999999999e-05,0.0004855
-0.008256000000000001,0.00015999999999999999,0.000486
-0.008304,0.0,0.0004865
-0.008288,-0.00011200000000000001,0.000487
-0.00824,-0.00015999999999999999,0.0004875
-0.008208,-0.000176,0.000488
-0.008256000000000001,-0.000192,0.0004885
-0.008304,-9.6e-05,0.000489
-0.008336000000000001,9.599999999999999e-05,0.0004895
-0.008352,0.000304,0.00049
-0.008400000000000001,0.000368,0.0004905
-0.008416000000000002,0.00031999999999999997,0.000491
-0.008448,0.000128,0.0004915
-0.008528,-6.400000000000001e-05,0.000492
-0.00856,-0.000176,0.0004925
-0.008496,-0.00015999999999999999,0.000493
-0.00856,-0.000272,0.0004935
-0.008592,-0.000256,0.000494
-0.008480000000000001,3.199999999999999e-05,0.0004945
-0.008512,0.000176,0.000495
-0.008528,0.000256,0.0004955
-0.008608000000000001,0.000176,0.000496
-0.00856,0.000176,0.0004965
-0.008512,0.000144,0.000497
-0.00856,1.5999999999999982e-05,0.0004975
-0.008608000000000001,-9.6e-05,0.000498
-0.00872,-0.000256,0.0004985
-0.008656,-0.000176,0.000499
-0.008704,-0.00012800000000000002,0.0004995
-0.008672000000000001,0.000112,0.0005
-0.00864,0.000368,0.0005005
-0.008768000000000001,0.000352,0.000501
-0.008784,0.00031999999999999997,0.0005015
-0.008736,0.000352,0.000502
-0.008672000000000001,0.000448,0.0005025
-0.008672000000000001,0.000496,0.000503
-0.008688000000000001,0.000512,0.0005035
-0.008656,0.000512,0.000504
-0.008656,0.000496,0.0005045
-0.00864,0.000576,0.000505
-0.00864,0.0006720000000000001,0.0005055
-0.008672000000000001,0.0007520000000000001,0.000506
-0.00872,0.0007999999999999999,0.0005065
-0.008688000000000001,0.0008960000000000001,0.000507
-0.008672000000000001,0.001024,0.0005075
-0.008736,0.001056,0.000508
-0.008688000000000001,0.0012799999999999999,0.0005085
-0.00856,0.001568,0.000509
-0.008528,0.0017599999999999998,0.0005095
-0.00856,0.001856,0.00051
-0.008576,0.002016,0.0005105
-0.008512,0.002352,0.000511
-0.008400000000000001,0.002736,0.0005115
-0.008432,0.00296,0.000512
-0.008432,0.003152,0.0005125
-0.008480000000000001,0.003312,0.000513
-0.008400000000000001,0.003744,0.0005135
-0.008416000000000002,0.004048,0.000514
-0.008208,0.004624,0.0005145
-0.008224,0.004912,0.000515
-0.008288,0.005184,0.0005155
-0.008224,0.005664,0.000516
-0.00808,0.00624,0.0005165
-0.008,0.006768,0.000517
-0.00792,0.00728,0.0005175
-0.007840000000000001,0.007792,0.000518
-0.007711999999999999,0.008320000000000001,0.0005185
-0.007552,0.00888,0.000519
-0.007392,0.009344000000000002,0.0005195
-0.007264,0.009760000000000001,0.00052
-0.0071519999999999995,0.010144,0.0005205
-0.006992,0.010656,0.000521
-0.0068,0.011232,0.0005215
-0.006592,0.011824000000000001,0.000522
-0.006448,0.012224,0.0005225
-0.006144,0.0128,0.000523
-0.005856,0.013264000000000001,0.0005235
-0.005632,0.01352,0.000524
-0.005472,0.013568,0.0005245
-0.005168,0.013584,0.000525
-0.004784,0.013712,0.0005255
-0.004448,0.013760000000000001,0.000526
-0.0041919999999999995,0.013680000000000001,0.0005265
-0.003952,0.013616000000000001,0.000527
-0.0036799999999999997,0.01352,0.0005275
-0.003328,0.013504,0.000528
-0.00312,0.01328,0.0005285
-0.002656,0.013296,0.000529
-0.002512,0.0128,0.0005295
-0.00232,0.012240000000000001,0.00053
-0.002064,0.011696000000000002,0.0005305
-0.0018080000000000001,0.011200000000000002,0.000531
-0.0015840000000000001,0.010784,0.0005315
-0.0014240000000000001,0.010336000000000001,0.000532
-0.001312,0.009888000000000001,0.0005325
-0.001152,0.00952,0.000533
-0.0011040000000000002,0.009056000000000002,0.0005335
-0.001008,0.008736,0.000534
-0.001008,0.008304,0.0005345
-0.0009440000000000001,0.007984,0.000535
-0.0009440000000000001,0.007632,0.0005355
-0.0009440000000000001,0.007312,0.000536
-0.0009440000000000001,0.00712,0.0005365
-0.001056,0.006928,0.000537
-0.000976,0.007104,0.0005375
-0.00096,0.007232,0.000538
-0.001056,0.007344,0.0005385
-0.0011680000000000002,0.007408,0.000539
-0.0012000000000000001,0.0076,0.0005395
-0.0011040000000000002,0.007984,0.00054
-0.0011040000000000002,0.008176000000000001,0.0005405
-0.0011680000000000002,0.008336000000000001,0.000541
-0.001232,0.008496,0.0005415
-0.001232,0.008864,0.000542
-0.001216,0.009296,0.0005425
-0.001312,0.009728,0.000543
-0.001216,0.010272000000000002,0.0005435
-0.00136,0.010464000000000001,0.000544
-0.0014240000000000001,0.010624000000000001,0.0005445
-0.001456,0.010768000000000002,0.000545
-0.00144,0.010864,0.0005455
-0.001456,0.0108,0.000546
-0.001456,0.010656,0.0005465
-0.0015040000000000001,0.010464000000000001,0.000547
-0.00152,0.01024,0.0005475
-0.00152,0.010048000000000001,0.000548
-0.001472,0.009792,0.0005485
-0.0014240000000000001,0.009488000000000002,0.000549
-0.0013440000000000001,0.009168,0.0005495
-0.00128,0.008848,0.00055
-0.0011680000000000002,0.008608000000000001,0.0005505
-0.0011840000000000002,0.008288,0.000551
-0.001088,0.008144,0.0005515
-0.000896,0.008176000000000001,0.000552
-0.000848,0.008224,0.0005525
-0.000896,0.008208,0.000553
-0.000976,0.008208,0.0005535
-0.0009279999999999999,0.008464000000000001,0.000554
-0.0008,0.008816000000000001,0.0005545
-0.000832,0.009040000000000001,0.000555
-0.0009119999999999999,0.009248000000000001,0.0005555
-0.001088,0.00936,0.000556
-0.001088,0.009680000000000001,0.0005565
-0.0012480000000000002,0.009744000000000001,0.000557
-0.001232,0.01,0.0005575
-0.0012640000000000001,0.01016,0.000558
-0.001472,0.010096,0.0005585
-0.0015680000000000002,0.010112000000000001,0.000559
-0.0015680000000000002,0.010144,0.0005595
-0.001552,0.010112000000000001,0.00056
-0.00152,0.010032000000000001,0.0005605
-0.001456,0.00992,0.000561
-0.0014080000000000002,0.009712,0.0005615
-0.0013280000000000002,0.009424,0.000562
-0.001216,0.009088,0.0005625
-0.0011040000000000002,0.008768000000000001,0.000563
-0.001056,0.008448,0.0005635
-0.001008,0.00824,0.000564
-0.00096,0.008128000000000002,0.0005645
-0.000896,0.008128000000000002,0.000565
-0.0009440000000000001,0.00808,0.0005655
-0.0009279999999999999,0.008224,0.000566
-0.00088,0.008544000000000001,0.0005665
-0.00088,0.008816000000000001,0.000567
-0.000992,0.008928,0.0005675
-0.001136,0.008928,0.000568
-0.0010400000000000001,0.009248000000000001,0.0005685
-0.0010240000000000002,0.00952,0.000569
-0.001072,0.009728,0.0005695
-0.001136,0.009856,0.00057
-0.001216,0.009888000000000001,0.0005705
-0.001152,0.010064,0.000571
-0.001216,0.010048000000000001,0.0005715
-0.001072,0.010256000000000001,0.000572
-0.0010240000000000002,0.010192000000000001,0.0005725
-0.001088,0.009888000000000001,0.000573
-0.001072,0.009584,0.0005735
-0.001056,0.009296,0.000574
-0.001072,0.009024,0.0005745
-0.001088,0.008784,0.000575
-0.001152,0.008512,0.0005755
-0.001136,0.008304,0.000576
-0.0012000000000000001,0.008032000000000001,0.0005765
-0.0012480000000000002,0.007808,0.000577
-0.0012480000000000002,0.007696,0.0005775
-0.0012000000000000001,0.007552,0.000578
-0.0011840000000000002,0.007312,0.0005785
-0.0011840000000000002,0.007152,0.000579
-0.0011200000000000001,0.007136,0.0005795
-0.0011840000000000002,0.007104,0.00058
-0.0011840000000000002,0.0072959999999999995,0.0005805
-0.0010400000000000001,0.007712,0.000581
-0.000992,0.008016,0.0005815
-0.001008,0.008256000000000001,0.000582
-0.001056,0.008480000000000001,0.0005825
-0.001008,0.008816000000000001,0.000583
-0.00096,0.009088,0.0005835
-0.000992,0.009168,0.000584
-0.0010240000000000002,0.009200000000000002,0.0005845
-0.001152,0.009152,0.000585
-0.001136,0.009264000000000001,0.0005855
-0.001312,0.009136,0.000586
-0.0012480000000000002,0.009232,0.0005865
-0.001296,0.009088,0.000587
-0.001376,0.0088,0.0005875
-0.001392,0.008528,0.000588
-0.0013280000000000002,0.008288,0.0005885
-0.001312,0.00792,0.000589
-0.00128,0.007536,0.0005895
-0.0012000000000000001,0.00728,0.00059
-0.001056,0.007216,0.0005905
-0.0010400000000000001,0.007104,0.000591
-0.000976,0.007088,0.0005915
-0.00088,0.0072,0.000592
-0.0008,0.007344,0.0005925
-0.000752,0.00752,0.000593
-0.000688,0.007728,0.0005935
-0.000736,0.00784,0.000594
-0.00096,0.007744,0.0005945
-0.001008,0.007936,0.000595
-0.00088,0.008336000000000001,0.0005955
-0.000816,0.008624000000000001,0.000596
-0.00088,0.00872,0.0005965
-0.001056,0.00864,0.000597
-0.001136,0.008656,0.0005975
-0.0011680000000000002,0.008704000000000002,0.000598
-0.0011840000000000002,0.008656,0.0005985
-0.001136,0.008560000000000002,0.000599
-0.001152,0.008304,0.0005995
-0.0011040000000000002,0.008016,0.0006
-0.001232,0.007536,0.0006005
-0.000992,0.007472,0.000601
-0.000976,0.007088,0.0006015
-0.00096,0.006704,0.000602
-0.0009279999999999999,0.0064,0.0006025
-0.000864,0.006208,0.000603
-0.000848,0.0060479999999999996,0.0006035
-0.000896,0.005968,0.000604
-0.000864,0.006032,0.0006045
-0.0009119999999999999,0.00608,0.000605
-0.000976,0.006176,0.0006055
-0.001072,0.006224,0.000606
-0.001056,0.006416,0.0006065
-0.001008,0.006592,0.000607
-0.001008,0.00664,0.0006075
-0.001072,0.006544,0.000608
-0.001152,0.006352,0.0006085
-0.00096,0.006416,0.000609
-0.000656,0.006544,0.0006095
-0.000656,0.006256,0.00061
-0.000864,0.005616,0.0006105
-0.001088,0.004896,0.000611
-0.0010400000000000001,0.00448,0.0006115
-0.0008,0.004224,0.000612
-0.000672,0.003824,0.0006125
-0.000688,0.0032,0.000613
-0.0009279999999999999,0.002384,0.0006135
-0.0009440000000000001,0.0019039999999999999,0.000614
-0.00088,0.001584,0.0006145
-0.000816,0.0013599999999999999,0.000615
-0.000672,0.0012159999999999999,0.0006155
-0.0008,0.000768,0.000616
-0.000832,0.000352,0.0006165
-0.000816,4.8e-05,0.000617
-0.0007199999999999999,-0.00011200000000000001,0.0006175
-0.0006399999999999999,-0.000288,0.000618
-0.000656,-0.0005759999999999999,0.0006185
-0.000688,-0.000864,0.000619
-0.000672,-0.001024,0.0006195
-0.000576,-0.0011040000000000002,0.00062
-0.000512,-0.00128,0.0006205
-0.00056,-0.0016480000000000002,0.000621
-0.000672,-0.002128,0.0006215
-0.000736,-0.002592,0.000622
-0.000672,-0.002896,0.0006225
-0.000672,-0.003296,0.000623
-0.0006399999999999999,-0.00368,0.0006235
-0.000592,-0.004,0.000624
-0.000672,-0.004416,0.0006245
-0.000688,-0.004704,0.000625
-0.000656,-0.00488,0.0006255
-0.000496,-0.004832,0.000626
-0.000464,-0.004864,0.0006265
-0.000432,-0.00488,0.000627
-0.00030399999999999996,-0.00472,0.0006275
-0.000192,-0.004432,0.000628
3.199999999999999e-05,-0.003888,0.0006285
-4.8000000000000015e-05,-0.0036320000000000002,0.000629
4.8e-05,-0.003024,0.0006295
1.5999999999999996e-05,-0.002624,0.00063
1.5999999999999996e-05,-0.002192,0.0006305
7.999999999999999e-05,-0.0017280000000000002,0.000631
0.000112,-0.0014240000000000001,0.0006315
9.6e-05,-0.0012640000000000001,0.000632
4.8e-05,-0.001216,0.0006325
6.4e-05,-0.001136,0.000633
0.000112,-0.001056,0.0006335
0.000224,-0.000912,0.000634
0.000304,-0.000864,0.0006345
0.0004,-0.0008160000000000001,0.000635
0.00048,-0.000768,0.0006355
0.00064,-0.0005920000000000001,0.000636
0.000896,-0.00035200000000000005,0.0006365
0.001024,-0.00023999999999999998,0.000637
0.001104,-0.00020800000000000001,0.0006375
0.001344,7.999999999999999e-05,0.000638
0.0015999999999999999,0.000384,0.0006385
0.001792,0.000656,0.000639
0.001856,0.0007520000000000001,0.0006395
0.001984,0.000912,0.00064
0.0022400000000000002,0.001232,0.0006405
0.002432,0.0014399999999999999,0.000641
0.002576,0.001488,0.0006415
0.00272,0.001456,0.000642
0.002896,0.0013599999999999999,0.0006425
0.003232,0.0013599999999999999,0.000643
0.003392,0.001168,0.0006435
0.003824,0.001248,0.000644
0.004016,0.000944,0.0006445
0.004288,0.0006720000000000001,0.000645
0.004688,0.000512,0.0006455
0.005008,0.000288,0.000646
0.00536,0.00015999999999999999,0.0006465
0.00568,3.199999999999999e-05,0.000647
0.005952,-6.400000000000001e-05,0.0006475
0.0061920000000000005,-0.00020800000000000001,0.000648
0.006432,-0.000368,0.0006485
0.0066560000000000005,-0.00043200000000000004,0.000649
0.006816,-0.0004959999999999999,0.0006495
0.006928,-0.000544,0.00065
0.007024,-0.000528,0.0006505
0.007104,-0.000448,0.000651
0.007056,-0.0005120000000000001,0.0006515
0.0070880000000000006,-0.0004,0.000652
0.007168,-0.000192,0.0006525
0.007168,-9.6e-05,0.000653
0.007104,-0.00014400000000000003,0.0006535
0.007008,-0.000272,0.000654
0.006992,-0.00023999999999999998,0.0006545
0.007008,-0.00011200000000000001,0.000655
0.006976,-9.6e-05,0.0006555
0.006832,-0.00023999999999999998,0.000656
0.0066560000000000005,-0.000416,0.0006565
0.006592,-0.00043200000000000004,0.000657
0.0064,-0.0004959999999999999,0.0006575
0.006432,-0.00020800000000000001,0.000658
0.006288,-0.00011200000000000001,0.0006585
0.006096,-0.00015999999999999999,0.000659
0.006,-0.000176,0.0006595
0.005968,-0.000176,0.00066
0.005936,-0.00020800000000000001,0.0006605
0.005968,-0.000256,0.000661
0.006048,-0.000304,0.0006615
0.006128,-0.000336,0.000662
0.006224,-0.000368,0.0006625
0.00632,-0.00038399999999999996,0.000663
0.006464,-0.000368,0.0006635
0.006592,-0.00048,0.000664
0.006704,-0.0006720000000000001,0.0006645
0.006816,-0.0008800000000000001,0.000665
0.006864,-0.0011840000000000002,0.0006655
0.006864,-0.00136,0.000666
0.007008,-0.001248,0.0006665
0.007072,-0.0011200000000000001,0.000667
0.007072,-0.000992,0.0006675
0.006992,-0.000928,0.000668
0.0069440000000000005,-0.0007999999999999999,0.0006685
0.006976,-0.0005920000000000001,0.000669
0.007056,-0.00035200000000000005,0.0006695
0.00704,-0.000288,0.00067
0.007008,-0.000256,0.0006705
0.007008,-0.00023999999999999998,0.000671
0.0070880000000000006,-9.6e-05,0.0006715
0.00704,-7.999999999999999e-05,0.000672
0.007232,0.000128,0.0006725
0.007136,-9.6e-05,0.000673
0.0071200000000000005,-0.00022400000000000002,0.0006735
0.007136,-0.000304,0.000674
0.007152,-0.00038399999999999996,0.0006745
0.007136,-0.00048,0.000675
0.0071200000000000005,-0.0006399999999999999,0.0006755
0.007168,-0.0007520000000000001,0.000676
0.007184,-0.0008800000000000001,0.0006765
0.007232,-0.000928,0.000677
0.007232,-0.0009760000000000001,0.0006775
0.0072640000000000005,-0.000912,0.000678
0.007344,-0.0007999999999999999,0.0006785
0.00744,-0.0006399999999999999,0.000679
0.007488,-0.0005120000000000001,0.0006795
0.007472,-0.0004959999999999999,0.00068
0.007472,-0.0005120000000000001,0.0006805
0.007696,-0.000272,0.000681
0.00768,-0.00035200000000000005,0.0006815
0.00768,-0.0004,0.000682
0.0075840000000000005,-0.000528,0.0006825
0.007568,-0.00046400000000000006,0.000683
0.0075840000000000005,-0.000304,0.0006835
0.007456,-0.00032,0.000684
0.00744,-0.00022400000000000002,0.0006845
0.0072640000000000005,-0.00038399999999999996,0.000685
0.0072640000000000005,-0.000368,0.0006855
0.007184,-0.00048,0.000686
0.007248,-0.000448,0.0006865
0.007392,-0.00038399999999999996,0.000687
0.007424,-0.00046400000000000006,0.0006875
0.00752,-0.00046400000000000006,0.000688
0.007536,-0.0005120000000000001,0.0006885
0.0075520000000000006,-0.00046400000000000006,0.000689
0.007648,-0.000336,0.0006895
0.007776,-0.000192,0.00069
0.007872,-0.00015999999999999999,0.0006905
0.007951999999999999,-0.00011200000000000001,0.000691
0.007951999999999999,-0.000192,0.0006915
0.00784,-0.000288,0.000692
0.007808,-0.00023999999999999998,0.0006925
0.007824,-7.999999999999999e-05,0.000693
0.007824,7.999999999999999e-05,0.0006935
0.007712,0.00015999999999999999,0.000694
0.007504,9.599999999999999e-05,0.0006945
0.00752,0.000192,0.000695
0.0075520000000000006,0.000256,0.0006955
0.00752,0.00015999999999999999,0.000696
0.007472,0.0,0.0006965
0.007472,-3.199999999999999e-05,0.000697
0.007568,0.000112,0.0006975
0.007648,0.000176,0.000698
0.007712,0.000192,0.0006985
0.007744,0.000128,0.000699
0.007776,6.4e-05,0.0006995
0.007904,0.000112,0.0007
0.007872,6.4e-05,0.0007005
0.008079999999999999,0.000384,0.000701
0.007999999999999998,0.000352,0.0007015
0.007968,0.00031999999999999997,0.000702
0.007951999999999999,0.000272,0.0007025
0.007904,0.000128,0.000703
0.007888,-4.8e-05,0.0007035
0.007904,-0.000176,0.000704
0.007935999999999999,-0.00020800000000000001,0.0007045
0.007872,-0.000336,0.000705
0.007808,-0.00043200000000000004,0.0007055
0.00776,-0.0004959999999999999,0.000706
0.007792,-0.00046400000000000006,0.0007065
0.007888,-0.00035200000000000005,0.000707
0.007968,-0.00023999999999999998,0.0007075
0.008048,-0.00020800000000000001,0.000708
0.007951999999999999,-0.00035200000000000005,0.0007085
0.007872,-0.000448,0.000709
0.007999999999999998,-0.00020800000000000001,0.0007095
0.008064,-7.999999999999999e-05,0.00071
0.008143999999999998,3.199999999999999e-05,0.0007105
0.008112,3.199999999999999e-05,0.000711
0.008143999999999998,0.000144,0.0007115
0.008223999999999999,0.000304,0.000712
0.008256,0.000288,0.0007125
0.008208,6.4e-05,0.000713
0.008176,-0.000288,0.0007135
0.008239999999999999,-0.00046400000000000006,0.000714
0.008303999999999999,-0.0005920000000000001,0.0007145
0.00832,-0.000608,0.000715
0.0084,-0.00046400000000000006,0.0007155
0.008208,-0.000608,0.000716
0.008159999999999999,-0.000608,0.0007165
0.008176,-0.000544,0.000717
0.008176,-0.000528,0.0007175
0.008239999999999999,-0.00046400000000000006,0.000718
0.008239999999999999,-0.00046400000000000006,0.0007185
0.008208,-0.000448,0.000719
0.008128,-0.000448,0.0007195
0.008143999999999998,-0.000336,0.00072
0.008239999999999999,-0.00014400000000000003,0.0007205
0.00832,-1.600000000000001e-05,0.000721
0.008383999999999999,0.0,0.0007215
0.008447999999999999,0.0,0.000722
0.008496,0.0,0.0007225
0.008447999999999999,-0.00020800000000000001,0.000723
0.008496,-0.000288,0.0007235
0.008672,-0.00015999999999999999,0.000724
0.008768,-0.00014400000000000003,0.0007245
0.008655999999999999,-0.000336,0.000725
0.008464,-0.0005920000000000001,0.0007255
0.008367999999999999,-0.000624,0.000726
0.0084,-0.00048,0.0007265
0.008383999999999999,-0.00043200000000000004,0.000727
0.008416,-0.00035200000000000005,0.0007275
0.008272,-0.00046400000000000006,0.000728
0.008256,-0.000416,0.0007285
0.008159999999999999,-0.00046400000000000006,0.000729
0.008303999999999999,-0.00023999999999999998,0.0007295
0.008367999999999999,-0.000176,0.00073
0.008336,-0.000256,0.0007305
0.008352,-0.00023999999999999998,0.000731
0.008416,-0.00015999999999999999,0.0007315
0.0084,-0.00012800000000000002,0.000732
0.008431999999999999,-4.8e-05,0.0007325
0.00848,4.8e-05,0.000733
0.008464,4.8e-05,0.0007335
0.008431999999999999,9.599999999999999e-05,0.000734
0.008336,0.000112,0.0007345
0.008256,7.999999999999999e-05,0.000735
0.008208,3.199999999999999e-05,0.0007355
0.008112,-6.400000000000001e-05,0.000736
0.008015999999999999,-9.6e-05,0.0007365
0.007904,-1.600000000000001e-05,0.000737
0.007744,0.0,0.0007375
0.007712,0.000144,0.000738
0.00776,0.00031999999999999997,0.0007385
0.007664,0.000304,0.000739
0.007504,0.000144,0.0007395
0.007424,6.4e-05,0.00074
0.007424,0.000112,0.0007405
0.007376,0.000128,0.000741
0.0072640000000000005,7.999999999999999e-05,0.0007415
0.007104,1.5999999999999982e-05,0.000742
0.006864,-6.400000000000001e-05,0.0007425
0.006768,0.000144,0.000743
0.006528,0.000208,0.0007435
0.006512,0.000512,0.000744
0.0061600000000000005,0.00031999999999999997,0.0007445
0.005824,7.999999999999999e-05,0.000745
0.005632,-1.600000000000001e-05,0.0007455
0.005504,-1.600000000000001e-05,0.000746
0.005328,-4.8e-05,0.0007465
0.00512,-4.8e-05,0.000747
0.00488,1.5999999999999982e-05,0.0007475
0.004656,7.999999999999999e-05,0.000748
0.004448,0.000176,0.0007485
0.004256,0.000176,0.000749
0.00408,9.599999999999999e-05,0.0007495
0.003856,-6.400000000000001e-05,0.00075
0.003552,-0.000256,0.0007505
0.00328,-0.000336,0.000751
0.0029920000000000003,-0.00043200000000000004,0.0007515
0.002656,-0.0004959999999999999,0.000752
0.002464,-0.000304,0.0007525
0.00216,-0.00023999999999999998,0.000753
0.0018399999999999998,-0.00022400000000000002,0.0007535
0.001552,-0.000272,0.000754
0.0013759999999999998,-0.000176,0.0007545
0.0012799999999999999,-1.600000000000001e-05,0.000755
0.0010559999999999999,1.5999999999999982e-05,0.0007555
0.000896,6.4e-05,0.000756
0.000688,-3.199999999999999e-05,0.0007565
0.000592,-1.600000000000001e-05,0.000757
0.00056,7.999999999999999e-05,0.0007575
0.000464,0.000112,0.000758
0.000512,0.000304,0.0007585
0.000304,0.000176,0.000759
0.000192,7.999999999999999e-05,0.0007595
0.00020800000000000001,4.8e-05,0.00076
0.000288,6.4e-05,0.0007605
0.000288,0.0,0.000761
0.000304,-4.8e-05,0.0007615
0.000336,-7.999999999999999e-05,0.000762
0.00041600000000000003,-7.999999999999999e-05,0.0007625
0.000464,-0.00012800000000000002,0.000763
0.00056,-0.000176,0.0007635
0.000704,-0.00014400000000000003,0.000764
0.000896,-1.600000000000001e-05,0.0007645
0.001024,7.999999999999999e-05,0.000765
0.00104,9.599999999999999e-05,0.0007655
0.000944,-6.400000000000001e-05,0.000766
0.000976,-4.8e-05,0.0007665
0.001184,0.000192,0.000767
0.001248,0.00023999999999999998,0.0007675
0.001264,0.000176,0.000768
0.001248,1.5999999999999982e-05,0.0007685
0.0012799999999999999,-3.199999999999999e-05,0.000769
0.001344,-1.600000000000001e-05,0.0007695
0.001328,-6.400000000000001e-05,0.00077
0.0013759999999999998,-3.199999999999999e-05,0.0007705
0.0013119999999999998,-0.000176,0.000771
0.001344,-0.00015999999999999999,0.0007715
0.0012319999999999998,-0.000272,0.000772
0.0013119999999999998,-9.6e-05,0.0007725
0.0012799999999999999,-3.199999999999999e-05,0.000773
0.0011519999999999998,-0.000192,0.0007735
0.001072,-0.00022400000000000002,0.000774
0.001024,-0.00011200000000000001,0.0007745
0.00096,3.199999999999999e-05,0.000775
0.000896,0.000192,0.0007755
0.000848,0.000272,0.000776
0.0008,0.00031999999999999997,0.0007765
0.0007520000000000001,0.000256,0.000777
0.00072,0.00015999999999999999,0.0007775
0.000688,3.199999999999999e-05,0.000778
0.000704,-3.199999999999999e-05,0.0007785
0.0007520000000000001,-3.199999999999999e-05,0.000779
0.0008,0.0,0.0007795
0.0008,0.0,0.00078
0.000704,-7.999999999999999e-05,0.0007805
0.000784,6.4e-05,0.000781
0.000864,0.000176,0.0007815
0.000848,0.000144,0.000782
0.0008,-1.600000000000001e-05,0.0007825
0.000768,-0.00014400000000000003,0.000783
0.000816,-0.00012800000000000002,0.0007835
0.000768,-0.000192,0.000784
0.0007520000000000001,-0.00020800000000000001,0.0007845
0.0008,-0.00015999999999999999,0.000785
0.000848,-4.8e-05,0.0007855
0.000944,0.000144,0.000786
0.00088,9.599999999999999e-05,0.0007865
0.001104,0.00031999999999999997,0.000787
0.0011519999999999998,0.00023999999999999998,0.0007875
0.0011359999999999999,0.000128,0.000788
0.0012159999999999999,0.000128,0.0007885
0.001264,0.000128,0.000789
0.0012,7.999999999999999e-05,0.0007895
0.001168,9.599999999999999e-05,0.00079
0.0011359999999999999,0.000112,0.0007905
0.00104,0.000112,0.000791
0.001024,0.000192,0.0007915
0.000944,0.00015999999999999999,0.000792
0.000864,6.4e-05,0.0007925
0.0008,-9.6e-05,0.000793
0.000768,-0.00015999999999999999,0.0007935
0.0007520000000000001,-0.00015999999999999999,0.000794
0.000672,-0.000176,0.0007945
0.000512,-0.000304,0.000795
0.000608,-9.6e-05,0.0007955
0.000672,6.4e-05,0.000796
0.000688,0.000112,0.0007965
0.000592,-4.8e-05,0.000797
0.000576,-0.00011200000000000001,0.0007975
0.000656,-3.199999999999999e-05,0.000798
0.000736,1.5999999999999982e-05,0.0007985
0.000784,6.4e-05,0.000799
0.000768,1.5999999999999982e-05,0.0007995
0.0007520000000000001,0.0,0.0008
0.0008320000000000001,6.4e-05,0.0008005
0.000768,-7.999999999999999e-05,0.000801
0.001008,0.000128,0.0008015
0.001008,9.599999999999999e-05,0.000802
0.0010559999999999999,7.999999999999999e-05,0.0008025
0.001088,4.8e-05,0.000803
0.0010559999999999999,-4.8e-05,0.0008035
0.000976,-0.00012800000000000002,0.000804
0.00096,-0.00012800000000000002,0.0008045
0.00096,-7.999999999999999e-05,0.000805
0.000944,-4.8e-05,0.0008055
0.000896,-4.8e-05,0.000806
0.000848,-4.8e-05,0.0008065
0.000736,-0.00014400000000000003,0.000807
0.00064,-0.000176,0.0008075
0.000624,-0.00011200000000000001,0.000808
0.000624,0.0,0.0008085
0.000592,0.0,0.000809
0.00048,-0.00014400000000000003,0.0008095
0.00056,-0.00012800000000000002,0.00081
0.00064,-9.6e-05,0.0008105
0.000688,-6.400000000000001e-05,0.000811
0.000704,-0.000192,0.0008115
0.000768,-0.00022400000000000002,0.000812
0.000928,-6.400000000000001e-05,0.0008125
0.001008,4.8e-05,0.000813
0.0010559999999999999,7.999999999999999e-05,0.0008135
0.001072,3.199999999999999e-05,0.000814
0.001072,-6.400000000000001e-05,0.0008145
0.0011359999999999999,0.0,0.000815
0.00104,-9.6e-05,0.0008155
0.001168,0.000176,0.000816
0.00104,6.4e-05,0.0008165
0.00096,-4.8e-05,0.000817
0.000944,-9.6e-05,0.0008175
0.00088,-0.00012800000000000002,0.000818
0.0008320000000000001,-0.00011200000000000001,0.0008185
0.000816,-3.199999999999999e-05,0.000819
0.000768,-1.600000000000001e-05,0.0008195
0.0007520000000000001,-4.8e-05,0.00082
0.000768,-1.600000000000001e-05,0.0008205
0.00023999999999999998,0.0,0.000821
0.000288,-6.400000000000001e-05,0.0008215
0.000464,-0.000192,0.000822
0.000608,-0.000256,0.0008225
0.0007520000000000001,-0.000288,0.000823
0.000896,-0.00020800000000000001,0.0008235
0.000928,-0.000176,0.000824
0.001008,-3.199999999999999e-05,0.0008245
0.001088,0.000112,0.000825
0.001088,6.4e-05,0.0008255
0.000992,-0.00011200000000000001,0.000826
0.001008,-0.00015999999999999999,0.0008265
0.001072,-3.199999999999999e-05,0.000827
0.001104,3.199999999999999e-05,0.0008275
0.001024,-4.8e-05,0.000828
0.000944,-0.00014400000000000003,0.0008285
0.000864,-0.00015999999999999999,0.000829
0.000976,6.4e-05,0.0008295
0.000912,3.199999999999999e-05,0.00083
0.0010559999999999999,0.000208,0.0008305
0.000992,4.8e-05,0.000831
0.000992,-0.00011200000000000001,0.0008315
0.000992,-0.000192,0.000832
0.000992,-0.000192,0.0008325
0.000976,-0.00015999999999999999,0.000833
0.000944,-0.00012800000000000002,0.0008335
0.000912,-0.00012800000000000002,0.000834
0.000944,-4.8e-05,0.0008345
0.000864,-1.600000000000001e-05,0.000835
0.000848,9.599999999999999e-05,0.0008355
0.000768,1.5999999999999982e-05,0.000836
0.000704,-6.400000000000001e-05,0.0008365
0.000672,-6.400000000000001e-05,0.000837
0.000656,-1.600000000000001e-05,0.0008375
0.00064,7.999999999999999e-05,0.000838
0.000496,0.0,0.0008385
0.000464,7.999999999999999e-05,0.000839
0.000544,0.00023999999999999998,0.0008395
0.000512,0.00023999999999999998,0.00084
0.000496,0.000176,0.0008405
0.000448,0.0,0.000841
0.000576,6.4e-05,0.0008415
0.000704,0.000128,0.000842
0.000672,4.8e-05,0.0008425
0.00056,-0.00012800000000000002,0.000843
0.00048,-0.000192,0.0008435
0.00056,-1.600000000000001e-05,0.000844
0.0005279999999999999,1.5999999999999982e-05,0.0008445
0.00064,0.00023999999999999998,0.000845
0.000512,0.000176,0.0008455
0.000288,1.5999999999999982e-05,0.000846
0.000144,-1.600000000000001e-05,0.0008465
7.999999999999999e-05,7.999999999999999e-05,0.000847
0.0,0.000176,0.0008475
-0.000112,0.000176,0.000848
-0.00023999999999999998,0.000144,0.0008485
-0.000384,7.999999999999999e-05,0.000849
-0.000464,1.5999999999999982e-05,0.0008495
-0.00047999999999999996,1.5999999999999982e-05,0.00085
-0.000496,1.5999999999999982e-05,0.0008505
-0.000576,-1.600000000000001e-05,0.000851
-0.000624,-1.600000000000001e-05,0.0008515
-0.000656,0.0,0.000852
-0.000656,3.199999999999999e-05,0.0008525
-0.000736,-6.400000000000001e-05,0.000853
-0.000768,-6.400000000000001e-05,0.0008535
-0.000768,-1.600000000000001e-05,0.000854
-0.00088,-3.199999999999999e-05,0.0008545
-0.0011040000000000002,-9.6e-05,0.000855
-0.0013280000000000002,-0.00011200000000000001,0.0008555
-0.00144,7.999999999999999e-05,0.000856
-0.0016320000000000002,0.000208,0.0008565
-0.0019679999999999997,0.000176,0.000857
-0.0022719999999999997,4.8e-05,0.0008575
-0.0025599999999999998,-9.6e-05,0.000858
-0.0027199999999999998,-3.199999999999999e-05,0.0008585
-0.003008,-6.400000000000001e-05,0.000859
-0.003088,0.000176,0.0008595
-0.0033439999999999998,0.000208,0.00086
-0.003568,0.000144,0.0008605
-0.003744,6.4e-05,0.000861
-0.003888,1.5999999999999982e-05,0.0008615
-0.00408,-1.600000000000001e-05,0.000862
-0.004176,6.4e-05,0.0008625
-0.00432,0.000112,0.000863
-0.004496,0.000112,0.0008635
-0.00472,9.599999999999999e-05,0.000864
-0.0049759999999999995,3.199999999999999e-05,0.0008645
-0.005232,0.0,0.000865
-0.005472,0.0,0.0008655
-0.0057599999999999995,-6.400000000000001e-05,0.000866
-0.006016,-7.999999999999999e-05,0.0008665
-0.00624,-4.8e-05,0.000867
-0.0065439999999999995,-0.00011200000000000001,0.0008675
-0.006784,-9.6e-05,0.000868
-0.006864,6.4e-05,0.0008685
-0.006912,7.999999999999999e-05,0.000869
-0.007088,-9.6e-05,0.0008695
-0.007184,-0.00023999999999999998,0.00087
-0.00712,-0.00015999999999999999,0.0008705
-0.007024,-3.199999999999999e-05,0.000871
-0.0069759999999999996,-4.8e-05,0.0008715
-0.006928,-0.00011200000000000001,0.000872
-0.006912,-0.00020800000000000001,0.0008725
-0.006736,1.5999999999999982e-05,0.000873
-0.006672,6.4e-05,0.0008735
-0.006448,0.00033600000000000004,0.000874
-0.006384,0.000256,0.0008745
-0.006496,-9.6e-05,0.000875
-0.006432,-0.00015999999999999999,0.0008755
-0.006352,-0.00012800000000000002,0.000876
-0.006288,-3.199999999999999e-05,0.0008765
-0.006272,4.8e-05,0.000877
-0.0062239999999999995,0.000112,0.0008775
-0.006208,0.000128,0.000878
-0.006208,0.000112,0.0008785
-0.006176,0.00015999999999999999,0.000879
-0.006144,0.00015999999999999999,0.0008795
-0.0060799999999999995,0.000128,0.00088
-0.0060479999999999996,7.999999999999999e-05,0.0008805
-0.005984,9.599999999999999e-05,0.000881
-0.0060479999999999996,9.599999999999999e-05,0.0008815
-0.00624,-6.400000000000001e-05,0.000882
-0.00632,-4.8e-05,0.0008825
-0.00632,4.8e-05,0.000883
-0.0064,3.199999999999999e-05,0.0008835
-0.0065439999999999995,-0.00011200000000000001,0.000884
-0.006736,-0.00032,0.0008845
-0.0068319999999999995,-0.00032,0.000885
-0.00696,-0.00032,0.0008855
-0.00712,-0.000448,0.000886
-0.007232,-0.0004959999999999999,0.0008865
-0.007328,-0.00043200000000000004,0.000887
-0.007264,-0.00015999999999999999,0.0008875
-0.007392,-0.00014400000000000003,0.000888
-0.0072,0.00015999999999999999,0.0008885
-0.007232,0.000112,0.000889
-0.007248,-1.600000000000001e-05,0.0008895
-0.007104,1.5999999999999982e-05,0.00089
-0.0069759999999999996,9.599999999999999e-05,0.0008905
-0.006896,9.599999999999999e-05,0.000891
-0.006816,0.000112,0.0008915
-0.00672,0.000192,0.000892
-0.006672,0.00023999999999999998,0.0008925
-0.006704,0.00015999999999999999,0.000893
-0.00672,7.999999999999999e-05,0.0008935
-0.006672,7.999999999999999e-05,0.000894
-0.006704,3.199999999999999e-05,0.0008945
-0.006768,0.0,0.000895
-0.006848,-1.600000000000001e-05,0.0008955
-0.006944,-4.8e-05,0.000896
-0.007104,-0.00015999999999999999,0.0008965
-0.007088,-6.400000000000001e-05,0.000897
-0.007056,1.5999999999999982e-05,0.0008975
-0.007104,-1.600000000000001e-05,0.000898
-0.007216,-0.000176,0.0008985
-0.007232,-0.00022400000000000002,0.000899
-0.007168,-0.000192,0.0008995
-0.0071519999999999995,-0.000192,0.0009
-0.007216,-0.00022400000000000002,0.0009005
-0.007312,-0.000304,0.000901
-0.00728,-0.00023999999999999998,0.0009015
-0.007264,-0.00015999999999999999,0.000902
-0.007344,-0.000176,0.0009025
-0.00728,-3.199999999999999e-05,0.000903
-0.00752,-0.000192,0.0009035
-0.0076,-0.00023999999999999998,0.000904
-0.007632,-0.000192,0.0009045
-0.007584,-9.6e-05,0.000905
-0.007584,-7.999999999999999e-05,0.0009055
-0.0076,-7.999999999999999e-05,0.000906
-0.007504,-6.400000000000001e-05,0.0009065
-0.0074399999999999996,-0.00014400000000000003,0.000907
-0.007376,-0.000256,0.0009075
-0.0072959999999999995,-0.00035200000000000005,0.000908
-0.007168,-0.000304,0.0009085
-0.00712,-0.00023999999999999998,0.000909
-0.007088,-0.000176,0.0009095
-0.007072,-0.00011200000000000001,0.00091
-0.007216,-0.00015999999999999999,0.0009105
-0.0072959999999999995,-0.000192,0.000911
-0.0072959999999999995,-6.400000000000001e-05,0.0009115
-0.007376,-4.8e-05,0.000912
-0.007584,-0.000176,0.0009125
-0.007775999999999999,-0.000304,0.000913
-0.007872,-0.000288,0.0009135
-0.007952,-0.000192,0.000914
-0.008032000000000001,-0.00014400000000000003,0.0009145
-0.008048000000000001,-0.00011200000000000001,0.000915
-0.008128000000000002,-0.000256,0.0009155
-0.008,-0.000256,0.000916
-0.008,-0.000368,0.0009165
-0.00776,-0.000192,0.000917
-0.007664,-0.000176,0.0009175
-0.007632,-0.000336,0.000918
-0.007568,-0.0004959999999999999,0.0009185
-0.0074399999999999996,-0.000544,0.000919
-0.007328,-0.000528,0.0009195
-0.0072959999999999995,-0.0005120000000000001,0.00092
-0.00736,-0.00048,0.0009205
-0.007504,-0.00056,0.000921
-0.007648,-0.0006559999999999999,0.0009215
-0.00776,-0.0007520000000000001,0.000922
-0.007824000000000001,-0.0007520000000000001,0.0009225
-0.007936,-0.0007999999999999999,0.000923
-0.008048000000000001,-0.000864,0.0009235
-0.008176000000000001,-0.001008,0.000924
-0.008288,-0.001136,0.0009245
-0.008368,-0.00128,0.000925
-0.008256000000000001,-0.001216,0.0009255
-0.008192000000000001,-0.001232,0.000926
-0.008192000000000001,-0.001456,0.0009265
-0.008256000000000001,-0.00176,0.000927
-0.008208,-0.0019360000000000002,0.0009275
-0.008048000000000001,-0.0019200000000000003,0.000928
-0.008,-0.0019039999999999999,0.0009285
-0.008032000000000001,-0.0020800000000000003,0.000929
-0.008064,-0.002368,0.0009295
-0.00808,-0.002608,0.00093
-0.008016,-0.002688,0.0009305
-0.008128000000000002,-0.00288,0.000931
-0.008016,-0.002816,0.0009315
-0.008208,-0.0031680000000000002,0.000932
-0.008304,-0.00352,0.0009325
-0.008304,-0.0037920000000000002,0.000933
-0.008256000000000001,-0.004048,0.0009335
-0.00824,-0.004368,0.000934
-0.008304,-0.004816,0.0009345
-0.008336000000000001,-0.005312,0.000935
-0.008320000000000001,-0.00576,0.0009355
-0.008352,-0.006224,0.000936
-0.008288,-0.006528,0.0009365
-0.008368,-0.00696,0.000937
-0.008400000000000001,-0.00736,0.0009375
-0.008416000000000002,-0.007776000000000001,0.000938
-0.008416000000000002,-0.008223999999999999,0.0009385
-0.008496,-0.008832,0.000939
-0.008624000000000001,-0.009472,0.0009395
-0.008576,-0.009888,0.00094
-0.008576,-0.010336,0.0009405
-0.00856,-0.010816,0.000941
-0.008576,-0.011295999999999999,0.0009415
-0.008512,-0.011663999999999999,0.000942
-0.008464000000000001,-0.012032,0.0009425
-0.008464000000000001,-0.012575999999999999,0.000943
-0.008416000000000002,-0.013056,0.0009435
-0.008336000000000001,-0.013423999999999998,0.000944
-0.008208,-0.013567999999999998,0.0009445
-0.008208,-0.01376,0.000945
-0.008128000000000002,-0.013744,0.0009455
-0.008112000000000001,-0.013744,0.000946
-0.008208,-0.01384,0.0009465
-0.00824,-0.013744,0.000947
-0.008224,-0.013488,0.0009475
-0.008256000000000001,-0.013215999999999999,0.000948
-0.008352,-0.012991999999999998,0.0009485
-0.008400000000000001,-0.012752,0.000949
-0.008400000000000001,-0.012495999999999998,0.0009495
-0.008400000000000001,-0.012223999999999999,0.00095
-0.008368,-0.011888,0.0009505
-0.008320000000000001,-0.011488,0.000951
-0.008256000000000001,-0.011056,0.0009515
-0.008144,-0.01056,0.000952
-0.008,-0.010095999999999999,0.0009525
-0.007888000000000001,-0.009696,0.000953
-0.007824000000000001,-0.009472,0.0009535
-0.007664,-0.009136,0.000954
-0.0074719999999999995,-0.008735999999999999,0.0009545
-0.00736,-0.008447999999999999,0.000955
-0.007328,-0.008239999999999999,0.0009555
-0.007312,-0.007984,0.000956
-0.007168,-0.007616,0.0009565
-0.007024,-0.007424,0.000957
-0.00704,-0.007392,0.0009575
-0.00704,-0.007392,0.000958
-0.0069759999999999996,-0.007424,0.0009585
-0.006752,-0.007344,0.000959
-0.006768,-0.007552,0.0009595
-0.006528,-0.0076,0.00096
-0.0065119999999999996,-0.007968,0.0009605
-0.0063679999999999995,-0.008287999999999998,0.000961
-0.0060799999999999995,-0.008495999999999998,0.0009615
-0.005808,-0.008719999999999999,0.000962
-0.005568,-0.009007999999999999,0.0009625
-0.00536,-0.009344,0.000963
-0.0052,-0.009647999999999999,0.0009635
-0.004944,-0.009888,0.000964
-0.0046879999999999995,-0.010095999999999999,0.0009645
-0.0045119999999999995,-0.010367999999999999,0.000965
-0.00432,-0.010591999999999999,0.0009655
-0.004144,-0.010735999999999999,0.000966
-0.003952,-0.010816,0.0009665
-0.003776,-0.010863999999999999,0.000967
-0.0036,-0.010943999999999999,0.0009675
-0.0034879999999999998,-0.01104,0.000968
-0.003248,-0.010943999999999999,0.0009685
-0.002992,-0.010752,0.000969
-0.002848,-0.010639999999999998,0.0009695
-0.002672,-0.010495999999999998,0.00097
-0.0024159999999999997,-0.010239999999999999,0.0009705
-0.0021119999999999997,-0.009855999999999998,0.000971
-0.0018560000000000002,-0.009472,0.0009715
-0.00168,-0.00912,0.000972
-0.0015840000000000001,-0.008848,0.0009725
-0.001376,-0.008495999999999998,0.000973
-0.001152,-0.008192,0.0009735
-0.0011040000000000002,-0.007935999999999999,0.000974
-0.000864,-0.00752,0.0009745
-0.0009119999999999999,-0.007392,0.000975
-0.0009119999999999999,-0.00728,0.0009755
-0.000848,-0.007168,0.000976
-0.000752,-0.007136,0.0009765
-0.000688,-0.00728,0.000977
-0.000656,-0.00744,0.0009775
-0.000672,-0.007664,0.000978
-0.000736,-0.007968,0.0009785
-0.0007199999999999999,-0.008223999999999999,0.000979
-0.000672,-0.00848,0.0009795
-0.0006399999999999999,-0.008768,0.00098
-0.000608,-0.009056,0.0009805
-0.000688,-0.009408,0.000981
-0.0008,-0.009727999999999999,0.0009815
-0.000992,-0.010095999999999999,0.000982
-0.001088,-0.010287999999999999,0.0009825
-0.001072,-0.010272,0.000983
-0.0011680000000000002,-0.01032,0.0009835
-0.001392,-0.010447999999999999,0.000984
-0.0016640000000000001,-0.010639999999999998,0.0009845
-0.001696,-0.010544,0.000985
-0.00168,-0.010351999999999998,0.0009855
-0.0017120000000000002,-0.010239999999999999,0.000986
-0.00176,-0.010079999999999999,0.0009865
-0.0018880000000000001,-0.010015999999999999,0.000987
-0.0018080000000000001,-0.009711999999999998,0.0009875
-0.00168,-0.009392,0.000988
-0.0015680000000000002,-0.00904,0.0009885
-0.001392,-0.008639999999999998,0.000989
-0.00144,-0.008527999999999999,0.0009895
-0.0014080000000000002,-0.008367999999999999,0.00099
-0.00128,-0.008079999999999999,0.0009905
-0.0011680000000000002,-0.0077919999999999994,0.000991
-0.001152,-0.007616,0.0009915
-0.001136,-0.007504,0.000992
-0.001152,-0.00744,0.0009925
-0.0011840000000000002,-0.007472,0.000993
-0.0011200000000000001,-0.007488,0.0009935
-0.001088,-0.0075840000000000005,0.000994
-0.001056,-0.007711999999999999,0.0009945
-0.0010240000000000002,-0.007888,0.000995
-0.000992,-0.008064,0.0009955
-0.000896,-0.008223999999999999,0.000996
-0.000864,-0.008495999999999998,0.0009965
-0.000848,-0.008719999999999999,0.000997
-0.000688,-0.008719999999999999,0.0009975
-0.0006399999999999999,-0.008816,0.000998
-0.000672,-0.009056,0.0009985
-0.000816,-0.009375999999999999,0.000999
