# Incident [V], Transmitted [V], time [s]
0.0,0.0,0.0
0.0,-1.5999999999999955e-05,5e-07
-0.000144,-0.00020799999999999996,1e-06
-0.000144,-0.00020799999999999996,1.5e-06
-0.00011200000000000001,-0.00015999999999999999,2e-06
-0.00011200000000000001,-0.00014399999999999992,2.5e-06
7.999999999999999e-05,0.00012800000000000008,3e-06
-4.8e-05,-4.7999999999999974e-05,3.5e-06
-0.000144,-0.0001919999999999999,4e-06
-0.000144,-0.0001919999999999999,4.5e-06
-6.4e-05,-9.599999999999995e-05,5e-06
-4.8e-05,-7.999999999999999e-05,5.5e-06
-8e-05,-9.599999999999995e-05,6e-06
-6.4e-05,-9.599999999999995e-05,6.5e-06
-6.4e-05,-9.599999999999995e-05,7e-06
-9.6e-05,-0.00012799999999999997,7.5e-06
-6.4e-05,-7.999999999999999e-05,8e-06
-4.8e-05,-4.7999999999999974e-05,8.5e-06
-8e-05,-9.599999999999995e-05,9e-06
-8e-05,-9.599999999999995e-05,9.5e-06
-1.600000000000001e-05,-3.199999999999991e-05,1e-05
-6.4e-05,-0.0001119999999999999,1.05e-05
-0.000176,-0.00023999999999999998,1.1e-05
-4.8e-05,-7.999999999999999e-05,1.15e-05
3.199999999999999e-05,3.200000000000002e-05,1.2e-05
1.600000000000001e-05,1.6000000000000064e-05,1.25e-05
-0.00011200000000000001,-0.0001919999999999999,1.3e-05
-0.000144,-0.00020799999999999996,1.35e-05
-3.2000000000000005e-05,-3.199999999999991e-05,1.4e-05
-1.600000000000001e-05,-3.199999999999991e-05,1.45e-05
-3.2000000000000005e-05,-7.999999999999999e-05,1.5e-05
-0.000176,-0.000272,1.55e-05
-9.6e-05,-0.00015999999999999999,1.6e-05
-0.00011200000000000001,-0.00017599999999999994,1.65e-05
-8e-05,-0.0001119999999999999,1.7e-05
3.199999999999999e-05,3.200000000000002e-05,1.75e-05
-8e-05,-0.00012799999999999997,1.8e-05
-6.4e-05,-0.00012799999999999997,1.85e-05
-4.8e-05,-0.0001119999999999999,1.9e-05
-0.00011200000000000001,-0.00020799999999999996,1.95e-05
-9.6e-05,-0.00017599999999999994,2e-05
-3.2000000000000005e-05,-9.599999999999995e-05,2.05e-05
-3.2000000000000005e-05,-9.599999999999995e-05,2.1e-05
-6.4e-05,-0.00012799999999999997,2.15e-05
-8e-05,-0.00014399999999999992,2.2e-05
-6.4e-05,-0.00012799999999999997,2.25e-05
-4.8e-05,-0.0001119999999999999,2.3e-05
-6.4e-05,-0.00014399999999999992,2.35e-05
-8e-05,-0.00012799999999999997,2.4e-05
-3.2000000000000005e-05,-7.999999999999999e-05,2.45e-05
-0.00011200000000000001,-0.00020799999999999996,2.5e-05
-0.000144,-0.00022399999999999992,2.55e-05
-3.2000000000000005e-05,-6.399999999999993e-05,2.6e-05
0.0,-3.199999999999991e-05,2.65e-05
-3.2000000000000005e-05,-9.599999999999995e-05,2.7e-05
-0.00016,-0.00025599999999999993,2.75e-05
-8e-05,-0.00017599999999999994,2.8e-05
0.0,-3.199999999999991e-05,2.85e-05
1.600000000000001e-05,-4.7999999999999974e-05,2.9e-05
0.0,-7.999999999999999e-05,2.95e-05
-0.000128,-0.00025599999999999993,3e-05
-8e-05,-0.00017599999999999994,3.05e-05
-0.00016,-0.000272,3.1e-05
1.600000000000001e-05,-1.5999999999999955e-05,3.15e-05
9.6e-05,4.800000000000008e-05,3.2e-05
-9.6e-05,-0.00020799999999999996,3.25e-05
-0.000128,-0.00025599999999999993,3.3e-05
-8e-05,-0.0001919999999999999,3.35e-05
-4.8e-05,-0.00015999999999999999,3.4e-05
-3.2000000000000005e-05,-0.00014399999999999992,3.45e-05
-3.2000000000000005e-05,-0.00014399999999999992,3.5e-05
-4.8e-05,-0.00015999999999999999,3.55e-05
-6.4e-05,-0.00017599999999999994,3.6e-05
-8e-05,-0.00017599999999999994,3.65e-05
-4.8e-05,-0.00012799999999999997,3.7e-05
-4.8e-05,-0.00014399999999999992,3.75e-05
-4.8e-05,-0.00012799999999999997,3.8e-05
-4.8e-05,-0.00012799999999999997,3.85e-05
-1.600000000000001e-05,-0.0001119999999999999,3.9e-05
-0.000128,-0.00023999999999999998,3.95e-05
-9.6e-05,-0.0001919999999999999,4e-05
1.600000000000001e-05,-1.5999999999999955e-05,4.05e-05
1.600000000000001e-05,-3.199999999999991e-05,4.1e-05
-4.8e-05,-0.00012799999999999997,4.15e-05
-0.000144,-0.00025599999999999993,4.2e-05
-4.8e-05,-0.00014399999999999992,4.25e-05
1.600000000000001e-05,-3.199999999999991e-05,4.3e-05
1.600000000000001e-05,-3.199999999999991e-05,4.35e-05
-4.8e-05,-0.00012799999999999997,4.4e-05
-0.000144,-0.00025599999999999993,4.45e-05
-4.8e-05,-0.00014399999999999992,4.5e-05
-0.000176,-0.0003039999999999999,4.55e-05
4.8e-05,1.6000000000000064e-05,4.6e-05
6.399999999999998e-05,4.800000000000008e-05,4.65e-05
-6.4e-05,-0.00015999999999999999,4.7e-05
-0.00011200000000000001,-0.00022399999999999992,4.75e-05
-8e-05,-0.0001919999999999999,4.8e-05
-6.4e-05,-0.00015999999999999999,4.85e-05
-4.8e-05,-0.00012799999999999997,4.9e-05
-4.8e-05,-0.00012799999999999997,4.95e-05
-4.8e-05,-0.00012799999999999997,5e-05
-8e-05,-0.00017599999999999994,5.05e-05
-8e-05,-0.00015999999999999999,5.1e-05
-6.4e-05,-0.00012799999999999997,5.15e-05
-3.2000000000000005e-05,-7.999999999999999e-05,5.2e-05
-1.600000000000001e-05,-6.399999999999993e-05,5.25e-05
-4.8e-05,-0.0001119999999999999,5.3e-05
-6.4e-05,-0.00012799999999999997,5.35e-05
-0.000176,-0.000272,5.4e-05
-9.6e-05,-0.00014399999999999992,5.45e-05
1.600000000000001e-05,0.0,5.5e-05
0.0,-3.199999999999991e-05,5.55e-05
-0.00011200000000000001,-0.00017599999999999994,5.6e-05
-0.000176,-0.00025599999999999993,5.65e-05
-6.4e-05,-9.599999999999995e-05,5.7e-05
0.0,0.0,5.75e-05
1.600000000000001e-05,0.0,5.8e-05
-6.4e-05,-0.00012799999999999997,5.85e-05
-0.00016,-0.00025599999999999993,5.9e-05
-6.4e-05,-0.00014399999999999992,5.95e-05
-0.00016,-0.00025599999999999993,6e-05
6.399999999999998e-05,4.800000000000008e-05,6.05e-05
4.8e-05,3.200000000000002e-05,6.1e-05
-8e-05,-0.00015999999999999999,6.15e-05
-0.000128,-0.00022399999999999992,6.2e-05
-9.6e-05,-0.00017599999999999994,6.25e-05
-8e-05,-0.00014399999999999992,6.3e-05
-6.4e-05,-0.00012799999999999997,6.35e-05
-8e-05,-0.00014399999999999992,6.4e-05
-6.4e-05,-0.00014399999999999992,6.45e-05
-6.4e-05,-0.00014399999999999992,6.5e-05
-8e-05,-0.00015999999999999999,6.55e-05
-6.4e-05,-0.00012799999999999997,6.6e-05
-6.4e-05,-0.00014399999999999992,6.65e-05
-8e-05,-0.00014399999999999992,6.7e-05
-6.4e-05,-0.0001119999999999999,6.75e-05
-3.2000000000000005e-05,-7.999999999999999e-05,6.8e-05
-0.000144,-0.00022399999999999992,6.85e-05
-0.00011200000000000001,-0.00022399999999999992,6.9e-05
0.0,-4.7999999999999974e-05,6.95e-05
1.600000000000001e-05,-3.199999999999991e-05,7e-05
-4.8e-05,-0.00012799999999999997,7.05e-05
-0.00011200000000000001,-0.00020799999999999996,7.1e-05
-6.4e-05,-0.00012799999999999997,7.15e-05
0.0,-4.7999999999999974e-05,7.2e-05
-4.8e-05,-9.599999999999995e-05,7.25e-05
-3.2000000000000005e-05,-9.599999999999995e-05,7.3e-05
-0.000128,-0.00022399999999999992,7.35e-05
-6.4e-05,-0.00014399999999999992,7.4e-05
-0.00016,-0.00028799999999999995,7.45e-05
3.199999999999999e-05,-1.5999999999999955e-05,7.5e-05
3.199999999999999e-05,-1.5999999999999955e-05,7.55e-05
-6.4e-05,-0.00017599999999999994,7.6e-05
-8e-05,-0.00020799999999999996,7.65e-05
-6.4e-05,-0.0001919999999999999,7.7e-05
-6.4e-05,-0.00020799999999999996,7.75e-05
-4.8e-05,-0.00020799999999999996,7.8e-05
-8e-05,-0.00025599999999999993,7.85e-05
-4.8e-05,-0.00023999999999999998,7.9e-05
-3.2000000000000005e-05,-0.00025599999999999993,7.95e-05
-3.2000000000000005e-05,-0.00023999999999999998,8e-05
-4.8e-05,-0.000272,8.05e-05
-4.8e-05,-0.00028799999999999995,8.1e-05
-4.8e-05,-0.0003039999999999999,8.15e-05
-3.2000000000000005e-05,-0.0003039999999999999,8.2e-05
1.600000000000001e-05,-0.00023999999999999998,8.25e-05
-6.4e-05,-0.00035199999999999994,8.3e-05
-0.000144,-0.00044799999999999994,8.35e-05
0.0,-0.00023999999999999998,8.4e-05
3.199999999999999e-05,-0.00015999999999999999,8.45e-05
-1.600000000000001e-05,-0.00020799999999999996,8.5e-05
-9.6e-05,-0.00028799999999999995,8.55e-05
-8e-05,-0.0001919999999999999,8.6e-05
1.600000000000001e-05,1.6000000000000064e-05,8.65e-05
1.600000000000001e-05,6.400000000000004e-05,8.7e-05
1.600000000000001e-05,0.00011200000000000001,8.75e-05
-0.00011200000000000001,-3.199999999999991e-05,8.8e-05
-0.00011200000000000001,6.400000000000004e-05,8.85e-05
-0.000144,0.00011200000000000001,8.9e-05
-6.4e-05,0.0003200000000000001,8.95e-05
7.999999999999999e-05,0.0006080000000000001,9e-05
-9.6e-05,0.000512,9.05e-05
-0.000176,0.000592,9.1e-05
-0.00016,0.000896,9.15e-05
-0.000128,0.0012000000000000001,9.2e-05
-0.00016,0.0014720000000000002,9.25e-05
-0.000192,0.0017920000000000002,9.3e-05
-0.00024,0.002032,9.35e-05
-0.000256,0.00232,9.4e-05
-0.000272,0.002496,9.45e-05
-0.000272,0.002592,9.5e-05
-0.000304,0.002496,9.55e-05
-0.00033600000000000004,0.002256,9.6e-05
-0.00033600000000000004,0.0018880000000000004,9.65e-05
-0.000272,0.001392,9.7e-05
-0.000288,0.000576,9.75e-05
-0.000352,-0.0004959999999999999,9.8e-05
-0.00022400000000000002,-0.0014559999999999998,9.85e-05
-0.00016,-0.002704,9.9e-05
-0.000144,-0.004208,9.95e-05
-0.00020800000000000001,-0.005936,0.0001
-0.00016,-0.007664000000000001,0.0001005
-1.600000000000001e-05,-0.009295999999999999,0.000101
4.8e-05,-0.011072,0.0001015
7.999999999999999e-05,-0.01296,0.000102
4.8e-05,-0.014832,0.0001025
0.00016,-0.016464,0.000103
0.000128,-0.018175999999999998,0.0001035
-0.00011200000000000001,-0.019968,0.000104
-8e-05,-0.021216,0.0001045
-0.000144,-0.02248,0.000105
-0.00011200000000000001,-0.023424,0.0001055
-1.600000000000001e-05,-0.024048,0.000106
0.0,-0.02456,0.0001065
-6.4e-05,-0.024975999999999998,0.000107
-6.4e-05,-0.025056,0.0001075
-6.4e-05,-0.025008,0.000108
-4.8e-05,-0.024768,0.0001085
3.199999999999999e-05,-0.024319999999999998,0.000109
7.999999999999999e-05,-0.023792,0.0001095
9.6e-05,-0.0232,0.00011
4.8e-05,-0.022592,0.0001105
1.600000000000001e-05,-0.02192,0.000111
1.600000000000001e-05,-0.021136,0.0001115
-1.600000000000001e-05,-0.020416,0.000112
-0.00016,-0.01984,0.0001125
-8e-05,-0.019008,0.000113
-4.8e-05,-0.018352,0.0001135
-9.6e-05,-0.017904,0.000114
-0.000192,-0.017696,0.0001145
-0.00020800000000000001,-0.01752,0.000115
-9.6e-05,-0.017328,0.0001155
0.0,-0.017248,0.000116
0.0,-0.01744,0.0001165
-6.4e-05,-0.017856,0.000117
-9.6e-05,-0.018208,0.0001175
0.0,-0.018496,0.000118
-9.6e-05,-0.019072,0.0001185
0.00011199999999999998,-0.019247999999999998,0.000119
6.399999999999998e-05,-0.01984,0.0001195
-8e-05,-0.020464,0.00012
-0.00011200000000000001,-0.020912,0.0001205
-0.00011200000000000001,-0.021232,0.000121
-0.00011200000000000001,-0.021424,0.0001215
-0.00011200000000000001,-0.021616,0.000122
-0.000144,-0.021679999999999998,0.0001225
-0.000128,-0.021536,0.000123
-8e-05,-0.02128,0.0001235
-8e-05,-0.020975999999999998,0.000124
-9.6e-05,-0.020592,0.0001245
-6.4e-05,-0.020048,0.000125
-4.8e-05,-0.01944,0.0001255
-3.2000000000000005e-05,-0.01888,0.000126
-1.600000000000001e-05,-0.018368,0.0001265
-9.6e-05,-0.01808,0.000127
0.0,-0.017679999999999998,0.0001275
7.999999999999999e-05,-0.01744,0.000128
0.0,-0.017584,0.0001285
-6.4e-05,-0.017888,0.000129
-8e-05,-0.018224,0.0001295
-1.600000000000001e-05,-0.018528,0.00013
-1.600000000000001e-05,-0.018976,0.0001305
-1.600000000000001e-05,-0.019407999999999998,0.000131
0.0,-0.019888,0.0001315
-0.00011200000000000001,-0.020399999999999998,0.000132
-0.000128,-0.020752,0.0001325
-0.000256,-0.021232,0.000133
1.600000000000001e-05,-0.02104,0.0001335
4.8e-05,-0.021008,0.000134
-8e-05,-0.021056,0.0001345
-0.000144,-0.02072,0.000135
-0.000128,-0.02016,0.0001355
-8e-05,-0.019504,0.000136
-6.4e-05,-0.018928,0.0001365
-4.8e-05,-0.01848,0.000137
-4.8e-05,-0.018112,0.0001375
-4.8e-05,-0.017952,0.000138
-3.2000000000000005e-05,-0.017936,0.0001385
-3.2000000000000005e-05,-0.017952,0.000139
-3.2000000000000005e-05,-0.018,0.0001395
-3.2000000000000005e-05,-0.018224,0.00014
-1.600000000000001e-05,-0.018623999999999998,0.0001405
1.600000000000001e-05,-0.019072,0.000141
-0.00011200000000000001,-0.019792,0.0001415
-9.6e-05,-0.020464,0.000142
1.600000000000001e-05,-0.020736,0.0001425
0.0,-0.020912,0.000143
-8e-05,-0.021008,0.0001435
-0.000176,-0.020975999999999998,0.000144
-8e-05,-0.020528,0.0001445
-1.600000000000001e-05,-0.020208,0.000145
-3.2000000000000005e-05,-0.020224,0.0001455
-6.4e-05,-0.02016,0.000146
-0.000176,-0.02,0.0001465
-9.6e-05,-0.019568,0.000147
-0.00016,-0.0192,0.0001475
7.999999999999999e-05,-0.018352,0.000148
9.6e-05,-0.018032,0.0001485
-4.8e-05,-0.01832,0.000149
-8e-05,-0.0188,0.0001495
-4.8e-05,-0.019264,0.00015
0.0,-0.019728,0.0001505
0.0,-0.020048,0.000151
1.600000000000001e-05,-0.020128,0.0001515
-1.600000000000001e-05,-0.02024,0.000152
0.0,-0.020432,0.0001525
1.600000000000001e-05,-0.02064,0.000153
0.0,-0.02088,0.0001535
-1.600000000000001e-05,-0.021168,0.000154
-6.4e-05,-0.021263999999999998,0.0001545
-8e-05,-0.020944,0.000155
-4.8e-05,-0.020208,0.0001555
-0.00016,-0.01968,0.000156
-0.00016,-0.019184,0.0001565
-4.8e-05,-0.018976,0.000157
-4.8e-05,-0.019152,0.0001575
-9.6e-05,-0.019376,0.000158
-0.00016,-0.019568,0.0001585
-4.8e-05,-0.019615999999999998,0.000159
3.199999999999999e-05,-0.019712,0.0001595
4.8e-05,-0.019808,0.00016
0.0,-0.019936,0.0001605
-8e-05,-0.020319999999999998,0.000161
-1.600000000000001e-05,-0.02064,0.0001615
-8e-05,-0.021216,0.000162
9.6e-05,-0.021168,0.0001625
0.000144,-0.020944,0.000163
-3.2000000000000005e-05,-0.020975999999999998,0.0001635
-4.8e-05,-0.020944,0.000164
-4.8e-05,-0.020784,0.0001645
-3.2000000000000005e-05,-0.020304,0.000165
-6.4e-05,-0.019823999999999998,0.0001655
-4.8e-05,-0.019456,0.000166
-8e-05,-0.019552,0.0001665
-9.6e-05,-0.01976,0.000167
-8e-05,-0.019872,0.0001675
-6.4e-05,-0.019888,0.000168
-4.8e-05,-0.02008,0.0001685
-4.8e-05,-0.020352,0.000169
-3.2000000000000005e-05,-0.020416,0.0001695
1.600000000000001e-05,-0.020336,0.00017
-4.8e-05,-0.020544,0.0001705
0.0,-0.020768,0.000171
9.6e-05,-0.021072,0.0001715
6.399999999999998e-05,-0.021424,0.000172
-3.2000000000000005e-05,-0.02144,0.0001725
-0.000128,-0.021103999999999998,0.000173
-3.2000000000000005e-05,-0.020464,0.0001735
6.399999999999998e-05,-0.019903999999999998,0.000174
6.399999999999998e-05,-0.019664,0.0001745
0.0,-0.019744,0.000175
-0.00011200000000000001,-0.020048,0.0001755
-6.4e-05,-0.02,0.000176
-0.000128,-0.020096,0.0001765
6.399999999999998e-05,-0.019823999999999998,0.000177
0.00011199999999999998,-0.019808,0.0001775
-4.8e-05,-0.020064,0.000178
-9.6e-05,-0.020208,0.0001785
-6.4e-05,-0.020352,0.000179
-4.8e-05,-0.02064,0.0001795
-4.8e-05,-0.021008,0.00018
-3.2000000000000005e-05,-0.021088,0.0001805
-1.600000000000001e-05,-0.02088,0.000181
-4.8e-05,-0.020704,0.0001815
-4.8e-05,-0.020496,0.000182
-8e-05,-0.020176,0.0001825
-6.4e-05,-0.019712,0.000183
-9.6e-05,-0.019216,0.0001835
-4.8e-05,-0.018768,0.000184
0.0,-0.018576,0.0001845
-0.000144,-0.018976,0.000185
-0.000128,-0.019152,0.0001855
1.600000000000001e-05,-0.019216,0.000186
1.600000000000001e-05,-0.019344,0.0001865
-4.8e-05,-0.019424,0.000187
-0.00011200000000000001,-0.01952,0.0001875
-3.2000000000000005e-05,-0.019648,0.000188
1.600000000000001e-05,-0.019888,0.0001885
1.600000000000001e-05,-0.020144,0.000189
0.0,-0.020256,0.0001895
-0.00011200000000000001,-0.020416,0.00019
-8e-05,-0.020128,0.0001905
-0.000192,-0.019952,0.000191
1.600000000000001e-05,-0.019184,0.0001915
7.999999999999999e-05,-0.018672,0.000192
-3.2000000000000005e-05,-0.018623999999999998,0.0001925
-6.4e-05,-0.018528,0.000193
-4.8e-05,-0.018255999999999998,0.0001935
-1.600000000000001e-05,-0.017952,0.000194
1.600000000000001e-05,-0.017824,0.0001945
6.399999999999998e-05,-0.017808,0.000195
7.999999999999999e-05,-0.017888,0.0001955
4.8e-05,-0.017872,0.000196
1.600000000000001e-05,-0.017456,0.0001965
0.0,-0.016544,0.000197
-1.600000000000001e-05,-0.015472,0.0001975
-3.2000000000000005e-05,-0.014591999999999999,0.000198
-3.2000000000000005e-05,-0.014143999999999999,0.0001985
0.0,-0.014112,0.000199
-0.000128,-0.014176,0.0001995
-9.6e-05,-0.013472,0.0002
0.0,-0.012287999999999999,0.0002005
1.600000000000001e-05,-0.011136,0.000201
-0.00011200000000000001,-0.010192,0.0002015
-0.000192,-0.009472,0.000202
-8e-05,-0.008799999999999999,0.0002025
3.199999999999999e-05,-0.008256,0.000203
3.199999999999999e-05,-0.007808000000000001,0.0002035
0.0,-0.00728,0.000204
-9.6e-05,-0.006848,0.0002045
-4.8e-05,-0.0061600000000000005,0.000205
-0.000144,-0.005776,0.0002055
9.6e-05,-0.004736,0.000206
9.6e-05,-0.003968,0.0002065
-6.4e-05,-0.003296,0.000207
-9.6e-05,-0.002448,0.0002075
-9.6e-05,-0.0015999999999999999,0.000208
-9.6e-05,-0.000752,0.0002085
-0.000128,-6.399999999999993e-05,0.000209
-0.000128,0.000352,0.0002095
-0.00011200000000000001,0.0005440000000000001,0.00021
-6.4e-05,0.0007680000000000001,0.0002105
-4.8e-05,0.000832,0.000211
-8e-05,0.0007840000000000001,0.0002115
-9.6e-05,0.00064,0.000212
-0.00011200000000000001,0.000512,0.0002125
-4.8e-05,0.0003840000000000001,0.000213
-1.600000000000001e-05,6.400000000000004e-05,0.0002135
-9.6e-05,-0.000592,0.000214
-0.000128,-0.001072,0.0002145
-1.600000000000001e-05,-0.0011359999999999999,0.000215
-1.600000000000001e-05,-0.001072,0.0002155
-8e-05,-0.000992,0.000216
-0.000176,-0.000944,0.0002165
-9.6e-05,-0.00056,0.000217
-1.600000000000001e-05,-0.00036799999999999995,0.0002175
-3.2000000000000005e-05,-0.00056,0.000218
-6.4e-05,-0.00104,0.0002185
-0.000128,-0.001584,0.000219
-4.8e-05,-0.001808,0.0002195
-0.000144,-0.002224,0.00022
6.399999999999998e-05,-0.002064,0.0002205
0.00011199999999999998,-0.002144,0.000221
-3.2000000000000005e-05,-0.002432,0.0002215
-8e-05,-0.002528,0.000222
-4.8e-05,-0.00248,0.0002225
-3.2000000000000005e-05,-0.002448,0.000223
-4.8e-05,-0.002304,0.0002235
-4.8e-05,-0.002032,0.000224
-4.8e-05,-0.00168,0.0002245
-8e-05,-0.001376,0.000225
-0.00011200000000000001,-0.0011359999999999999,0.0002255
-9.6e-05,-0.0008479999999999999,0.000226
-0.00011200000000000001,-0.0006879999999999999,0.0002265
-9.6e-05,-0.0004959999999999999,0.000227
-4.8e-05,-0.00033599999999999993,0.0002275
0.0,-0.0003039999999999999,0.000228
-0.00011200000000000001,-0.0006879999999999999,0.0002285
-0.000128,-0.0010559999999999999,0.000229
1.600000000000001e-05,-0.0012,0.0002295
3.199999999999999e-05,-0.001472,0.00023
-3.2000000000000005e-05,-0.001648,0.0002305
-0.000128,-0.0017439999999999999,0.000231
-8e-05,-0.00152,0.0002315
1.600000000000001e-05,-0.001184,0.000232
0.0,-0.0010559999999999999,0.0002325
-3.2000000000000005e-05,-0.0010559999999999999,0.000233
-0.000176,-0.001344,0.0002335
-0.00011200000000000001,-0.001408,0.000234
-0.00016,-0.001728,0.0002345
0.0,-0.001664,0.000235
9.6e-05,-0.001584,0.0002355
-3.2000000000000005e-05,-0.001696,0.000236
-0.000128,-0.001648,0.0002365
-9.6e-05,-0.001488,0.000237
-6.4e-05,-0.001424,0.0002375
-3.2000000000000005e-05,-0.001504,0.000238
-3.2000000000000005e-05,-0.00168,0.0002385
-3.2000000000000005e-05,-0.0017599999999999998,0.000239
-3.2000000000000005e-05,-0.001712,0.0002395
-6.4e-05,-0.001552,0.00024
-4.8e-05,-0.0012,0.0002405
-3.2000000000000005e-05,-0.000864,0.000241
-3.2000000000000005e-05,-0.000624,0.0002415
-8e-05,-0.00047999999999999996,0.000242
0.0,-0.00035199999999999994,0.0002425
-8e-05,-0.000624,0.000243
-0.000144,-0.00104,0.0002435
1.600000000000001e-05,-0.001152,0.000244
4.8e-05,-0.001392,0.0002445
-1.600000000000001e-05,-0.001728,0.000245
-0.00011200000000000001,-0.0019359999999999998,0.0002455
-8e-05,-0.001808,0.000246
0.0,-0.0015999999999999999,0.0002465
0.0,-0.001568,0.000247
0.0,-0.001536,0.0002475
-0.00016,-0.001696,0.000248
-0.00016,-0.001552,0.0002485
-0.00020800000000000001,-0.001488,0.000249
-6.4e-05,-0.001088,0.0002495
7.999999999999999e-05,-0.0007679999999999999,0.00025
-4.8e-05,-0.000752,0.0002505
-0.000144,-0.0007199999999999999,0.000251
-0.000128,-0.0006079999999999999,0.0002515
-0.00011200000000000001,-0.0005279999999999999,0.000252
-6.4e-05,-0.00035199999999999994,0.0002525
-4.8e-05,-0.00031999999999999997,0.000253
-4.8e-05,-0.00038399999999999996,0.0002535
-8e-05,-0.00056,0.000254
-9.6e-05,-0.0006559999999999999,0.0002545
-9.6e-05,-0.000704,0.000255
-9.6e-05,-0.0007199999999999999,0.0002555
-8e-05,-0.000704,0.000256
-9.6e-05,-0.0007199999999999999,0.0002565
-6.4e-05,-0.000672,0.000257
-0.000128,-0.0007359999999999999,0.0002575
-0.000192,-0.000752,0.000258
-9.6e-05,-0.0006399999999999999,0.0002585
-4.8e-05,-0.0006559999999999999,0.000259
-6.4e-05,-0.000816,0.0002595
-0.000192,-0.001024,0.00026
-0.00016,-0.000976,0.0002605
-1.600000000000001e-05,-0.0006079999999999999,0.000261
-3.2000000000000005e-05,-0.00035199999999999994,0.0002615
-6.4e-05,-9.599999999999995e-05,0.000262
-0.000192,-7.999999999999999e-05,0.0002625
-0.000144,1.6000000000000064e-05,0.000263
-0.000176,-9.599999999999995e-05,0.0002635
-0.00011200000000000001,-7.999999999999999e-05,0.000264
6.399999999999998e-05,0.0,0.0002645
-9.6e-05,-0.00025599999999999993,0.000265
-0.00016,-0.000416,0.0002655
-9.6e-05,-0.00044799999999999994,0.000266
-8e-05,-0.00047999999999999996,0.0002665
-9.6e-05,-0.000592,0.000267
-8e-05,-0.000704,0.0002675
-6.4e-05,-0.000864,0.000268
-8e-05,-0.000944,0.0002685
-4.8e-05,-0.0010559999999999999,0.000269
-6.4e-05,-0.0012959999999999998,0.0002695
-9.6e-05,-0.001392,0.00027
-0.000128,-0.001328,0.0002705
-9.6e-05,-0.0010559999999999999,0.000271
-3.2000000000000005e-05,-0.000624,0.0002715
-9.6e-05,-0.00039999999999999996,0.000272
-0.000192,-0.00036799999999999995,0.0002725
-9.6e-05,-0.00015999999999999999,0.000273
-4.8e-05,-0.00014399999999999992,0.0002735
-6.4e-05,-0.0003039999999999999,0.000274
-0.00011200000000000001,-0.0006079999999999999,0.0002745
-9.6e-05,-0.0007359999999999999,0.000275
-1.600000000000001e-05,-0.000784,0.0002755
-1.600000000000001e-05,-0.0009599999999999999,0.000276
0.0,-0.000928,0.0002765
-9.6e-05,-0.00104,0.000277
-0.00016,-0.0010559999999999999,0.0002775
-0.000128,-0.001088,0.000278
-6.4e-05,-0.00104,0.0002785
0.00011199999999999998,-0.00104,0.000279
-8e-05,-0.001568,0.0002795
-0.000144,-0.001664,0.00028
-9.6e-05,-0.0014559999999999998,0.0002805
-4.8e-05,-0.001152,0.000281
-8e-05,-0.0009119999999999999,0.0002815
-0.00011200000000000001,-0.0006559999999999999,0.000282
-8e-05,-0.0004959999999999999,0.0002825
-1.600000000000001e-05,-0.0005279999999999999,0.000283
-4.8e-05,-0.000752,0.0002835
-0.00011200000000000001,-0.001008,0.000284
-9.6e-05,-0.001184,0.0002845
-3.2000000000000005e-05,-0.001072,0.000285
-4.8e-05,-0.000976,0.0002855
-4.8e-05,-0.000864,0.000286
-0.000128,-0.000928,0.0002865
-0.00016,-0.00104,0.000287
-1.600000000000001e-05,-0.0010559999999999999,0.0002875
-1.600000000000001e-05,-0.0012799999999999999,0.000288
-3.2000000000000005e-05,-0.001504,0.0002885
-0.00011200000000000001,-0.0015999999999999999,0.000289
-4.8e-05,-0.001424,0.0002895
3.199999999999999e-05,-0.0010559999999999999,0.00029
-3.2000000000000005e-05,-0.000928,0.0002905
-8e-05,-0.0007679999999999999,0.000291
-0.000192,-0.0008799999999999999,0.0002915
-0.000144,-0.0007199999999999999,0.000292
-0.000144,-0.000704,0.0002925
-8e-05,-0.0005759999999999999,0.000293
4.8e-05,-0.00039999999999999996,0.0002935
-6.4e-05,-0.000624,0.000294
-0.000176,-0.0007359999999999999,0.0002945
-0.00016,-0.0007199999999999999,0.000295
-0.00011200000000000001,-0.0007359999999999999,0.0002955
-8e-05,-0.000896,0.000296
-6.4e-05,-0.001168,0.0002965
-6.4e-05,-0.001376,0.000297
-6.4e-05,-0.001344,0.0002975
-6.4e-05,-0.001184,0.000298
-4.8e-05,-0.001008,0.0002985
-6.4e-05,-0.000832,0.000299
-9.6e-05,-0.0006079999999999999,0.0002995
-9.6e-05,-0.00046399999999999995,0.0003
-6.4e-05,-0.00039999999999999996,0.0003005
-0.000144,-0.000544,0.000301
-0.000176,-0.000544,0.0003015
-4.8e-05,-0.0003039999999999999,0.000302
-4.8e-05,-0.00020799999999999996,0.0003025
-9.6e-05,-0.00022399999999999992,0.000303
-0.000176,-0.000416,0.0003035
-0.000128,-0.00039999999999999996,0.000304
-3.2000000000000005e-05,-0.0003039999999999999,0.0003045
-1.600000000000001e-05,-0.0005119999999999999,0.000305
-4.8e-05,-0.0007359999999999999,0.0003055
-0.000144,-0.000944,0.000306
-0.00011200000000000001,-0.0006879999999999999,0.0003065
-0.00016,-0.0005119999999999999,0.000307
-4.8e-05,3.200000000000002e-05,0.0003075
3.199999999999999e-05,0.0004000000000000001,0.000308
-0.00011200000000000001,0.000432,0.0003085
-0.000176,0.00048000000000000007,0.000309
-0.000176,0.0005440000000000001,0.0003095
-0.000144,0.0004640000000000001,0.00031
-9.6e-05,0.000272,0.0003105
-3.2000000000000005e-05,0.0001600000000000001,0.000311
-3.2000000000000005e-05,0.00011200000000000001,0.0003115
-6.4e-05,3.200000000000002e-05,0.000312
-6.4e-05,6.400000000000004e-05,0.0003125
-4.8e-05,9.600000000000006e-05,0.000313
-4.8e-05,0.0,0.0003135
-4.8e-05,-0.0001919999999999999,0.000314
-4.8e-05,-0.000416,0.0003145
-1.600000000000001e-05,-0.0005119999999999999,0.000315
-0.000144,-0.0006879999999999999,0.0003155
-0.000128,-0.0006079999999999999,0.000316
-1.600000000000001e-05,-0.00035199999999999994,0.0003165
-1.600000000000001e-05,-0.0001919999999999999,0.000317
-8e-05,-9.599999999999995e-05,0.0003175
-0.000192,-0.00012799999999999997,0.000318
-0.00011200000000000001,1.6000000000000064e-05,0.0003185
-3.2000000000000005e-05,1.6000000000000064e-05,0.000319
-3.2000000000000005e-05,-0.00015999999999999999,0.0003195
-4.8e-05,-0.00035199999999999994,0.00032
-0.00016,-0.000624,0.0003205
-9.6e-05,-0.000672,0.000321
-0.000144,-0.0008799999999999999,0.0003215
3.199999999999999e-05,-0.000544,0.000322
6.399999999999998e-05,-0.00038399999999999996,0.0003225
-6.4e-05,-0.000592,0.000323
-0.000128,-0.0007359999999999999,0.0003235
-8e-05,-0.0007359999999999999,0.000324
-6.4e-05,-0.000816,0.0003245
-4.8e-05,-0.000864,0.000325
-4.8e-05,-0.000816,0.0003255
-6.4e-05,-0.0007199999999999999,0.000326
-8e-05,-0.0005119999999999999,0.0003265
-9.6e-05,-0.00031999999999999997,0.000327
-8e-05,-0.00017599999999999994,0.0003275
-8e-05,-4.7999999999999974e-05,0.000328
-8e-05,-6.399999999999993e-05,0.0003285
-3.2000000000000005e-05,-7.999999999999999e-05,0.000329
1.600000000000001e-05,-4.7999999999999974e-05,0.0003295
-0.000144,-0.00033599999999999993,0.00033
-0.00016,-0.00046399999999999995,0.0003305
-4.8e-05,-0.00025599999999999993,0.000331
-1.600000000000001e-05,-0.00022399999999999992,0.0003315
-8e-05,-0.00039999999999999996,0.000332
-0.00016,-0.0005279999999999999,0.0003325
-8e-05,-0.000416,0.000333
-3.2000000000000005e-05,-0.0003039999999999999,0.0003335
-3.2000000000000005e-05,-0.0001919999999999999,0.000334
-3.2000000000000005e-05,-9.599999999999995e-05,0.0003345
-0.00016,-0.0001119999999999999,0.000335
-0.00011200000000000001,0.00012800000000000008,0.0003355
-0.000192,9.600000000000006e-05,0.000336
0.0,0.0003840000000000001,0.0003365
3.199999999999999e-05,0.0003040000000000001,0.000337
-0.000128,-9.599999999999995e-05,0.0003375
-0.00011200000000000001,-0.00025599999999999993,0.000338
-9.6e-05,-0.00044799999999999994,0.0003385
-6.4e-05,-0.000544,0.000339
-3.2000000000000005e-05,-0.000544,0.0003395
-3.2000000000000005e-05,-0.00047999999999999996,0.00034
-4.8e-05,-0.00035199999999999994,0.0003405
-9.6e-05,-0.00025599999999999993,0.000341
-8e-05,-0.00017599999999999994,0.0003415
-9.6e-05,-0.0001919999999999999,0.000342
-6.4e-05,-4.7999999999999974e-05,0.0003425
-4.8e-05,4.800000000000008e-05,0.000343
-8e-05,9.600000000000006e-05,0.0003435
-4.8e-05,0.00025600000000000004,0.000344
-0.000144,0.00020799999999999996,0.0003445
-0.00016,0.0003040000000000001,0.000345
-3.2000000000000005e-05,0.0005440000000000001,0.0003455
-1.600000000000001e-05,0.00048000000000000007,0.000346
-0.000128,0.00014400000000000003,0.0003465
-0.000192,-0.00014399999999999992,0.000347
-9.6e-05,-0.00020799999999999996,0.0003475
-1.600000000000001e-05,-0.00023999999999999998,0.000348
-6.4e-05,-0.00028799999999999995,0.0003485
-9.6e-05,-0.00015999999999999999,0.000349
-0.00022400000000000002,-0.0001119999999999999,0.0003495
-0.000176,0.000192,0.00035
-0.00024,0.000272,0.0003505
1.600000000000001e-05,0.0006080000000000001,0.000351
-1.600000000000001e-05,0.0004000000000000001,0.0003515
-0.000144,0.0,0.000352
-0.000144,-0.00017599999999999994,0.0003525
-9.6e-05,-0.00020799999999999996,0.000353
-8e-05,-0.00012799999999999997,0.0003535
-4.8e-05,6.400000000000004e-05,0.000354
-4.8e-05,0.00025600000000000004,0.0003545
-9.6e-05,0.00033600000000000004,0.000355
-0.00011200000000000001,0.00036799999999999995,0.0003555
-9.6e-05,0.0003200000000000001,0.000356
-9.6e-05,0.000192,0.0003565
-8e-05,1.6000000000000064e-05,0.000357
-8e-05,-0.0001119999999999999,0.0003575
-4.8e-05,-4.7999999999999974e-05,0.000358
-6.4e-05,8.00000000000001e-05,0.0003585
-0.00020800000000000001,0.00012800000000000008,0.000359
-0.000128,0.00041600000000000003,0.0003595
-6.4e-05,0.0005600000000000001,0.00036
-4.8e-05,0.000432,0.0003605
-0.000176,4.800000000000008e-05,0.000361
-0.000192,-0.00025599999999999993,0.0003615
-8e-05,-0.00033599999999999993,0.000362
-3.2000000000000005e-05,-0.00039999999999999996,0.0003625
-4.8e-05,-0.000416,0.000363
-9.6e-05,-0.00035199999999999994,0.0003635
-0.000192,-0.00020799999999999996,0.000364
-9.6e-05,0.00012800000000000008,0.0003645
-0.00022400000000000002,0.00012800000000000008,0.000365
3.199999999999999e-05,0.000512,0.0003655
-3.2000000000000005e-05,0.00033600000000000004,0.000366
-0.00016,6.400000000000004e-05,0.0003665
-0.000144,-4.7999999999999974e-05,0.000367
-0.00011200000000000001,-7.999999999999999e-05,0.0003675
-9.6e-05,-7.999999999999999e-05,0.000368
-4.8e-05,4.800000000000008e-05,0.0003685
-3.2000000000000005e-05,0.000192,0.000369
-9.6e-05,0.00022400000000000013,0.0003695
-0.00011200000000000001,0.0002400000000000001,0.00037
-0.000128,0.00017600000000000005,0.0003705
-9.6e-05,9.600000000000006e-05,0.000371
-9.6e-05,1.6000000000000064e-05,0.0003715
-9.6e-05,-0.0001119999999999999,0.000372
-6.4e-05,-0.00017599999999999994,0.0003725
-0.00011200000000000001,-0.00031999999999999997,0.000373
-0.00020800000000000001,-0.00043199999999999993,0.0003735
-6.4e-05,-0.00014399999999999992,0.000374
-3.2000000000000005e-05,4.800000000000008e-05,0.0003745
-4.8e-05,8.00000000000001e-05,0.000375
-0.000144,-4.7999999999999974e-05,0.0003755
-0.000144,-4.7999999999999974e-05,0.000376
-3.2000000000000005e-05,0.00011200000000000001,0.0003765
0.0,9.600000000000006e-05,0.000377
-3.2000000000000005e-05,9.600000000000006e-05,0.0003775
-0.00016,0.0,0.000378
-0.00016,0.00011200000000000001,0.0003785
-0.000144,0.00017600000000000005,0.000379
-0.000128,0.00020799999999999996,0.0003795
7.999999999999999e-05,0.0003840000000000001,0.00038
-6.4e-05,-1.5999999999999955e-05,0.0003805
-0.000128,-0.00044799999999999994,0.000381
-0.00011200000000000001,-0.000592,0.0003815
-6.4e-05,-0.0005759999999999999,0.000382
-4.8e-05,-0.00046399999999999995,0.0003825
-8e-05,-0.0003039999999999999,0.000383
-9.6e-05,-0.00017599999999999994,0.0003835
-9.6e-05,-4.7999999999999974e-05,0.000384
-9.6e-05,1.6000000000000064e-05,0.0003845
-8e-05,-3.199999999999991e-05,0.000385
-4.8e-05,-9.599999999999995e-05,0.0003855
-4.8e-05,-0.00022399999999999992,0.000386
-4.8e-05,-0.00028799999999999995,0.0003865
0.0,-0.00015999999999999999,0.000387
-9.6e-05,-0.0001919999999999999,0.0003875
-0.000144,-0.0001919999999999999,0.000388
-6.4e-05,0.0,0.0003885
-6.4e-05,0.0,0.000389
-9.6e-05,-0.00015999999999999999,0.0003895
-0.000144,-0.00033599999999999993,0.00039
-8e-05,-0.00033599999999999993,0.0003905
-1.600000000000001e-05,-0.00025599999999999993,0.000391
-4.8e-05,-0.000272,0.0003915
-6.4e-05,-0.0001919999999999999,0.000392
-0.000192,-0.00020799999999999996,0.0003925
-0.000144,0.0,0.000393
-0.00022400000000000002,-0.00014399999999999992,0.0003935
0.0,4.800000000000008e-05,0.000394
0.0,-6.399999999999993e-05,0.0003945
-0.000144,-0.00039999999999999996,0.000395
-0.00016,-0.0005119999999999999,0.0003955
-0.00011200000000000001,-0.000416,0.000396
-9.6e-05,-0.00023999999999999998,0.0003965
-9.6e-05,-3.199999999999991e-05,0.000397
-0.00011200000000000001,0.00017600000000000005,0.0003975
-0.000144,0.00025600000000000004,0.000398
-0.000144,0.00025600000000000004,0.0003985
-0.000128,0.0001600000000000001,0.000399
-0.000144,-6.399999999999993e-05,0.0003995
-0.000144,-0.00020799999999999996,0.0004
-0.000144,-0.000272,0.0004005
-0.00011200000000000001,-0.0001919999999999999,0.000401
-0.000128,-7.999999999999999e-05,0.0004015
-0.00024,-0.0001119999999999999,0.000402
-0.00016,6.400000000000004e-05,0.0004025
-8e-05,0.000192,0.000403
-6.4e-05,0.00014400000000000003,0.0004035
-9.6e-05,-9.599999999999995e-05,0.000404
-0.000128,-0.000272,0.0004045
-1.600000000000001e-05,-0.00020799999999999996,0.000405
7.999999999999999e-05,-0.00012799999999999997,0.0004055
9.6e-05,-6.399999999999993e-05,0.000406
1.600000000000001e-05,-1.5999999999999955e-05,0.0004065
-8e-05,0.00011200000000000001,0.000407
3.199999999999999e-05,0.00048000000000000007,0.0004075
-6.4e-05,0.00048000000000000007,0.000408
0.00016,0.000816,0.0004085
6.399999999999998e-05,0.0006080000000000001,0.000409
-0.00011200000000000001,0.000192,0.0004095
-0.000144,-3.199999999999991e-05,0.00041
-0.000128,-0.0001119999999999999,0.0004105
-0.000144,-0.00014399999999999992,0.000411
-0.00022400000000000002,-0.0001119999999999999,0.0004115
-0.000352,-6.399999999999993e-05,0.000412
-0.000512,-1.5999999999999955e-05,0.0004125
-0.000656,8.00000000000001e-05,0.000413
-0.000848,9.600000000000006e-05,0.0004135
-0.00104,0.00012800000000000008,0.000414
-0.001328,0.00011200000000000001,0.0004145
-0.0016,0.00011200000000000001,0.000415
-0.001856,0.0001600000000000001,0.0004155
-0.002192,0.00020799999999999996,0.000416
-0.002656,6.400000000000004e-05,0.0004165
-0.002912,0.0001600000000000001,0.000417
-0.003184,0.00022400000000000013,0.0004175
-0.003616,0.0,0.000418
-0.00408,-0.00025599999999999993,0.0004185
-0.00448,-0.00039999999999999996,0.000419
-0.004736,-0.0003039999999999999,0.0004195
-0.00504,-0.00020799999999999996,0.00042
-0.00536,-7.999999999999999e-05,0.0004205
-0.0057280000000000005,-6.399999999999993e-05,0.000421
-0.006032,-6.399999999999993e-05,0.0004215
-0.00616,8.00000000000001e-05,0.000422
-0.006416,-9.599999999999995e-05,0.0004225
-0.00632,0.00011200000000000001,0.000423
-0.006512,-9.599999999999995e-05,0.0004235
-0.0066560000000000005,-0.0003039999999999999,0.000424
-0.006736,-0.00038399999999999996,0.0004245
-0.006736,-0.00031999999999999997,0.000425
-0.00672,-0.00015999999999999999,0.0004255
-0.0066560000000000005,4.800000000000008e-05,0.000426
-0.0066560000000000005,0.00011200000000000001,0.0004265
-0.006608,0.00014400000000000003,0.000427
-0.006608,4.800000000000008e-05,0.0004275
-0.006608,-6.399999999999993e-05,0.000428
-0.006576,-0.0001119999999999999,0.0004285
-0.006528,-0.00012799999999999997,0.000429
-0.006528,-0.00012799999999999997,0.0004295
-0.00656,-0.0001119999999999999,0.00043
-0.006624,-3.199999999999991e-05,0.0004305
-0.006816,-4.7999999999999974e-05,0.000431
-0.006816,0.000192,0.0004315
-0.006784,0.00033600000000000004,0.000432
-0.00688,0.00028799999999999995,0.0004325
-0.007072,1.6000000000000064e-05,0.000433
-0.0072,-0.00012799999999999997,0.0004335
-0.0072,-7.999999999999999e-05,0.000434
-0.007184,-1.5999999999999955e-05,0.0004345
-0.007296,-4.7999999999999974e-05,0.000435
-0.007424,-9.599999999999995e-05,0.0004355
-0.007504,-7.999999999999999e-05,0.000436
-0.007472,4.800000000000008e-05,0.0004365
-0.007552,-9.599999999999995e-05,0.000437
-0.007296,0.00012800000000000008,0.0004375
-0.007328,-0.0001119999999999999,0.000438
-0.00744,-0.00035199999999999994,0.0004385
-0.007392,-0.00033599999999999993,0.000439
-0.007344,-0.00025599999999999993,0.0004395
-0.007344,-0.00017599999999999994,0.00044
-0.007328,-1.5999999999999955e-05,0.0004405
-0.007312,6.400000000000004e-05,0.000441
-0.00736,6.400000000000004e-05,0.0004415
-0.007408,1.6000000000000064e-05,0.000442
-0.007456,-7.999999999999999e-05,0.0004425
-0.00752,-0.00017599999999999994,0.000443
-0.0076,-0.00022399999999999992,0.0004435
-0.007696,-0.00020799999999999996,0.000444
-0.007776,-0.00012799999999999997,0.0004445
-0.00784,0.0,0.000445
-0.008048,-4.7999999999999974e-05,0.0004455
-0.00808,9.600000000000006e-05,0.000446
-0.008048,0.00033600000000000004,0.0004465
-0.008048,0.0004000000000000001,0.000447
-0.008096,0.00022400000000000013,0.0004475
-0.008192,-0.00012799999999999997,0.000448
-0.008176,-0.00023999999999999998,0.0004485
-0.008064,-0.0001919999999999999,0.000449
-0.008048,-0.00015999999999999999,0.0004495
-0.00808,-0.00015999999999999999,0.00045
-0.008208,-0.0001919999999999999,0.0004505
-0.008128,9.600000000000006e-05,0.000451
-0.008208,8.00000000000001e-05,0.0004515
-0.00808,0.000272,0.000452
-0.008096,0.00017600000000000005,0.0004525
-0.00824,-9.599999999999995e-05,0.000453
-0.008288,-0.00017599999999999994,0.0004535
-0.008336,-0.00015999999999999999,0.000454
-0.008448,-0.00014399999999999992,0.0004545
-0.008496,-7.999999999999999e-05,0.000455
-0.008496,4.800000000000008e-05,0.0004555
-0.00848,0.00014400000000000003,0.000456
-0.008528,6.400000000000004e-05,0.0004565
-0.008608,-7.999999999999999e-05,0.000457
-0.008576,-9.599999999999995e-05,0.0004575
-0.008496,-1.5999999999999955e-05,0.000458
-0.008512,0.0,0.0004585
-0.008544,0.0,0.000459
-0.008512,9.600000000000006e-05,0.0004595
-0.008592,1.6000000000000064e-05,0.00046
-0.008656,-6.399999999999993e-05,0.0004605
-0.008576,8.00000000000001e-05,0.000461
-0.008576,0.00011200000000000001,0.0004615
-0.008656,6.400000000000004e-05,0.000462
-0.008784,-4.7999999999999974e-05,0.0004625
-0.008816,0.0,0.000463
-0.008768,0.00014400000000000003,0.0004635
-0.0088,0.00017600000000000005,0.000464
-0.008816,0.00017600000000000005,0.0004645
-0.009008,-9.599999999999995e-05,0.000465
-0.008992,-0.00012799999999999997,0.0004655
-0.008992,-0.00025599999999999993,0.000466
-0.008896,-0.00022399999999999992,0.0004665
-0.008752,-0.0001119999999999999,0.000467
-0.008928,-0.000272,0.0004675
-0.008976,-0.00023999999999999998,0.000468
-0.008928,-4.7999999999999974e-05,0.0004685
-0.008896,0.00014400000000000003,0.000469
-0.008912,0.00017600000000000005,0.0004695
-0.00896,0.00017600000000000005,0.00047
-0.008992,9.600000000000006e-05,0.0004705
-0.009024,3.200000000000002e-05,0.000471
-0.009072,-4.7999999999999974e-05,0.0004715
-0.009088,-3.199999999999991e-05,0.000472
-0.009088,-1.5999999999999955e-05,0.0004725
-0.009168,0.0,0.000473
-0.0092,8.00000000000001e-05,0.0004735
-0.00912,0.00025600000000000004,0.000474
-0.009136,0.00022400000000000013,0.0004745
-0.009264,-3.199999999999991e-05,0.000475
-0.009136,-1.5999999999999955e-05,0.0004755
-0.00904,-1.5999999999999955e-05,0.000476
-0.009056,-0.00017599999999999994,0.0004765
-0.009168,-0.00038399999999999996,0.000477
-0.009184,-0.00035199999999999994,0.0004775
-0.009088,-3.199999999999991e-05,0.000478
-0.009088,0.00014400000000000003,0.0004785
-0.00912,0.00028799999999999995,0.000479
-0.009264,0.00020799999999999996,0.0004795
-0.009344,0.0001600000000000001,0.00048
-0.00928,0.000192,0.0004805
-0.009408,-0.00012799999999999997,0.000481
-0.009184,1.6000000000000064e-05,0.0004815
-0.009232,-0.00012799999999999997,0.000482
-0.009376,-0.00025599999999999993,0.0004825
-0.009408,-0.0001919999999999999,0.000483
-0.009392,3.200000000000002e-05,0.0004835
-0.009376,0.000192,0.000484
-0.009376,0.00025600000000000004,0.0004845
-0.009408,0.00020799999999999996,0.000485
-0.009408,0.00011200000000000001,0.0004855
-0.009424,-3.199999999999991e-05,0.000486
-0.00944,-0.00014399999999999992,0.0004865
-0.009456,-0.00015999999999999999,0.000487
-0.009504,-9.599999999999995e-05,0.0004875
-0.009600000000000001,-1.5999999999999955e-05,0.000488
-0.009616,0.00017600000000000005,0.0004885
-0.009584,0.0003200000000000001,0.000489
-0.009728,0.000192,0.0004895
-0.009776,8.00000000000001e-05,0.00049
-0.009648,0.0001600000000000001,0.0004905
-0.009632,3.200000000000002e-05,0.000491
-0.009696,-0.00015999999999999999,0.0004915
-0.009776,-0.00025599999999999993,0.000492
-0.009728,-0.00012799999999999997,0.0004925
-0.009664,0.0001600000000000001,0.000493
-0.009696,0.0003200000000000001,0.0004935
-0.009728,0.00048000000000000007,0.000494
-0.00992,0.000352,0.0004945
-0.009872,0.0004640000000000001,0.000495
-0.009952,0.00028799999999999995,0.0004955
-0.009856,0.0003040000000000001,0.000496
-0.009776,0.00028799999999999995,0.0004965
-0.009904,1.6000000000000064e-05,0.000497
-0.009968,-9.599999999999995e-05,0.0004975
-0.009968,-4.7999999999999974e-05,0.000498
-0.009952,8.00000000000001e-05,0.0004985
-0.009968,0.00020799999999999996,0.000499
-0.009936,0.0003200000000000001,0.0004995
-0.009936,0.00036799999999999995,0.0005
-0.009936,0.00041600000000000003,0.0005005
-0.009936,0.00041600000000000003,0.000501
-0.009952,0.00041600000000000003,0.0005015
-0.009936,0.0004640000000000001,0.000502
-0.009952,0.0005440000000000001,0.0005025
-0.009968,0.000656,0.000503
-0.00992,0.000832,0.0005035
-0.010016,0.000816,0.000504
-0.010064,0.000832,0.0005045
-0.009888,0.001072,0.000505
-0.009856,0.0011360000000000003,0.0005055
-0.009888,0.001104,0.000506
-0.01,0.001056,0.0005065
-0.009936,0.0012800000000000003,0.000507
-0.009808,0.0016160000000000002,0.0005075
-0.009792,0.001824,0.000508
-0.009744,0.0020800000000000003,0.0005085
-0.009872,0.002144,0.000509
-0.00984,0.00248,0.0005095
-0.009856,0.00272,0.00051
-0.009696,0.003232,0.0005105
-0.009584,0.0036000000000000003,0.000511
-0.009696,0.0037440000000000004,0.0005115
-0.009744,0.0040479999999999995,0.000512
-0.009728,0.004448,0.0005125
-0.009712,0.004895999999999999,0.000513
-0.009648,0.005408,0.0005135
-0.009600000000000001,0.005888,0.000514
-0.009584,0.006352,0.0005145
-0.009536,0.006912,0.000515
-0.00944,0.007472,0.0005155
-0.009312,0.00808,0.000516
-0.009168,0.008752000000000001,0.0005165
-0.009008,0.009472000000000001,0.000517
-0.008864,0.010224,0.0005175
-0.00864,0.011008,0.000518
-0.00856,0.01152,0.0005185
-0.008464,0.011984,0.000519
-0.008096,0.012768,0.0005195
-0.007856,0.01344,0.00052
-0.007664,0.014,0.0005205
-0.007552,0.014496,0.000521
-0.007232,0.015264,0.0005215
-0.006848,0.016032,0.000522
-0.00656,0.016592,0.0005225
-0.00624,0.017056,0.000523
-0.006016,0.017248,0.0005235
-0.0056,0.017472,0.000524
-0.005296,0.017536,0.0005245
-0.004848,0.01768,0.000525
-0.004288,0.017952,0.0005255
-0.004064,0.017824,0.000526
-0.003776,0.01776,0.0005265
-0.003424,0.01776,0.000527
-0.003136,0.0176,0.0005275
-0.002768,0.017376,0.000528
-0.002432,0.016976,0.0005285
-0.002128,0.016384,0.000529
-0.001856,0.015632,0.0005295
-0.001616,0.014848,0.00053
-0.0014240000000000001,0.014112000000000001,0.0005305
-0.001264,0.013424,0.000531
-0.001104,0.012832000000000001,0.0005315
-0.000976,0.012304,0.000532
-0.0008320000000000001,0.011872,0.0005325
-0.0008,0.011312000000000001,0.000533
-0.000848,0.010656,0.0005335
-0.000736,0.010320000000000001,0.000534
-0.000624,0.009968000000000001,0.0005345
-0.000656,0.009504,0.000535
-0.0008,0.009040000000000001,0.0005355
-0.000848,0.00888,0.000536
-0.000768,0.009056,0.0005365
-0.0008,0.009232,0.000537
-0.00088,0.00952,0.0005375
-0.001024,0.009728,0.000538
-0.001104,0.010096,0.0005385
-0.001104,0.01056,0.000539
-0.001216,0.010912,0.0005395
-0.000992,0.011696,0.00054
-0.001168,0.012032000000000001,0.0005405
-0.001328,0.012432,0.000541
-0.00136,0.013024,0.0005415
-0.00136,0.013632,0.000542
-0.001408,0.014112000000000001,0.0005425
-0.001408,0.01448,0.000543
-0.00144,0.014656,0.0005435
-0.001488,0.01464,0.000544
-0.001536,0.014448,0.0005445
-0.001552,0.014208,0.000545
-0.0015840000000000001,0.013888000000000001,0.0005455
-0.001632,0.013536000000000001,0.000546
-0.0016640000000000001,0.013152,0.0005465
-0.0015840000000000001,0.012816000000000001,0.000547
-0.001536,0.012384000000000001,0.0005475
-0.0015840000000000001,0.011808,0.000548
-0.001456,0.011504,0.0005485
-0.00136,0.011168,0.000549
-0.00128,0.010816000000000001,0.0005495
-0.001264,0.010432,0.00055
-0.0012000000000000001,0.01024,0.0005505
-0.000992,0.010288,0.000551
-0.0008640000000000001,0.010336000000000001,0.0005515
-0.0008320000000000001,0.010384000000000001,0.000552
-0.0008320000000000001,0.010416,0.0005525
-0.0008320000000000001,0.010624,0.000553
-0.000736,0.011024,0.0005535
-0.000848,0.011232,0.000554
-0.0006720000000000001,0.011856,0.0005545
-0.0008320000000000001,0.012016,0.000555
-0.00104,0.01216,0.0005555
-0.001184,0.012384000000000001,0.000556
-0.001264,0.012544000000000001,0.0005565
-0.00136,0.012544000000000001,0.000557
-0.00144,0.01248,0.0005575
-0.00152,0.012320000000000001,0.000558
-0.001552,0.012176000000000001,0.0005585
-0.001552,0.01208,0.000559
-0.001536,0.012,0.0005595
-0.00152,0.011856,0.00056
-0.00152,0.011664,0.0005605
-0.001456,0.01152,0.000561
-0.001328,0.01136,0.0005615
-0.001296,0.011072,0.000562
-0.001344,0.010624,0.0005625
-0.001184,0.010544000000000001,0.000563
-0.001056,0.010496,0.0005635
-0.00104,0.010368,0.000564
-0.00112,0.010288,0.0005645
-0.00112,0.010448,0.000565
-0.001024,0.010816000000000001,0.0005655
-0.00104,0.011056,0.000566
-0.001152,0.011184000000000001,0.0005665
-0.001328,0.011216,0.000567
-0.001392,0.011312000000000001,0.0005675
-0.001376,0.011504,0.000568
-0.001408,0.011648,0.0005685
-0.001168,0.012048000000000001,0.000569
-0.00128,0.012048000000000001,0.0005695
-0.001344,0.012064,0.00057
-0.001312,0.012208,0.0005705
-0.001184,0.012336,0.000571
-0.001104,0.012320000000000001,0.0005715
-0.001072,0.01208,0.000572
-0.001024,0.011808,0.0005725
-0.001024,0.011424,0.000573
-0.001008,0.011088,0.0005735
-0.000992,0.010736,0.000574
-0.000992,0.010432,0.0005745
-0.000992,0.01016,0.000575
-0.001024,0.009904000000000001,0.0005755
-0.001008,0.009744000000000001,0.000576
-0.001088,0.00936,0.0005765
-0.001072,0.009136,0.000577
-0.00096,0.009008,0.0005775
-0.00096,0.008816000000000001,0.000578
-0.00096,0.00864,0.0005785
-0.000976,0.008544000000000001,0.000579
-0.0008320000000000001,0.008784,0.0005795
-0.000688,0.009136,0.00058
-0.00064,0.009472000000000001,0.0005805
-0.000592,0.009872,0.000581
-0.000656,0.010096,0.0005815
-0.000592,0.010496,0.000582
-0.000704,0.010576,0.0005825
-0.000576,0.010944,0.000583
-0.00056,0.011088,0.0005835
-0.000816,0.010832000000000001,0.000584
-0.000928,0.0108,0.0005845
-0.001024,0.010784,0.000585
-0.0012000000000000001,0.010704,0.0005855
-0.00128,0.010624,0.000586
-0.001312,0.010512,0.0005865
-0.001328,0.01024,0.000587
-0.001376,0.00984,0.0005875
-0.001392,0.009408000000000001,0.000588
-0.00136,0.009088,0.0005885
-0.001328,0.008816000000000001,0.000589
-0.00128,0.008672000000000001,0.0005895
-0.001152,0.008688000000000001,0.00059
-0.001104,0.008752000000000001,0.0005905
-0.001168,0.008752000000000001,0.000591
-0.001088,0.009056,0.0005915
-0.00096,0.009424,0.000592
-0.000976,0.009616000000000001,0.0005925
-0.001072,0.009744000000000001,0.000593
-0.001168,0.009888000000000001,0.0005935
-0.001168,0.010224,0.000594
-0.001136,0.010512,0.0005945
-0.001232,0.010608000000000001,0.000595
-0.001376,0.010656,0.0005955
-0.00152,0.010608000000000001,0.000596
-0.001472,0.010784,0.0005965
-0.0016,0.01056,0.000597
-0.001392,0.010704,0.0005975
-0.001376,0.010464000000000001,0.000598
-0.00144,0.010048000000000001,0.0005985
-0.00144,0.009664,0.000599
-0.001392,0.00936,0.0005995
-0.00128,0.009072,0.0006
-0.001216,0.008816000000000001,0.0006005
-0.001152,0.008592,0.000601
-0.001168,0.008368,0.0006015
-0.001184,0.008208,0.000602
-0.0012000000000000001,0.008096,0.0006025
-0.001184,0.008096,0.000603
-0.001264,0.008112000000000001,0.0006035
-0.001312,0.008208,0.000604
-0.001296,0.008400000000000001,0.0006045
-0.00136,0.008480000000000001,0.000605
-0.00152,0.008368,0.0006055
-0.001456,0.008592,0.000606
-0.001392,0.008704,0.0006065
-0.001408,0.008576,0.000607
-0.001456,0.008272,0.0006075
-0.001408,0.008032000000000001,0.000608
-0.001248,0.007888000000000001,0.0006085
-0.0012000000000000001,0.007472,0.000609
-0.001168,0.00704,0.0006095
-0.001216,0.006384,0.00061
-0.001216,0.0057599999999999995,0.0006105
-0.001152,0.005183999999999999,0.000611
-0.001216,0.004496,0.0006115
-0.000992,0.004144,0.000612
-0.00112,0.003376,0.0006125
-0.001232,0.002736,0.000613
-0.001232,0.0023680000000000003,0.0006135
-0.001232,0.002,0.000614
-0.001216,0.001696,0.0006145
-0.001216,0.001392,0.000615
-0.001184,0.001072,0.0006155
-0.001152,0.00072,0.000616
-0.00112,0.00036799999999999995,0.0006165
-0.00104,8.00000000000001e-05,0.000617
-0.000992,-0.00022399999999999992,0.0006175
-0.000928,-0.0004959999999999999,0.000618
-0.000848,-0.000752,0.0006185
-0.000816,-0.00104,0.000619
-0.0008320000000000001,-0.001504,0.0006195
-0.000896,-0.002016,0.00062
-0.0008,-0.002352,0.0006205
-0.0007520000000000001,-0.002784,0.000621
-0.0007520000000000001,-0.0033599999999999997,0.0006215
-0.00088,-0.0040160000000000005,0.000622
-0.0009440000000000001,-0.004528,0.0006225
-0.000816,-0.004688,0.000623
-0.0007520000000000001,-0.004864,0.0006235
-0.00072,-0.00504,0.000624
-0.0008,-0.005248,0.0006245
-0.0007840000000000001,-0.00528,0.000625
-0.0006720000000000001,-0.005104,0.0006255
-0.000608,-0.004896,0.000626
-0.00024,-0.004288,0.0006265
-0.00024,-0.004112,0.000627
-0.000272,-0.003968,0.0006275
-0.00016,-0.0035039999999999997,0.000628
-8e-05,-0.0030559999999999997,0.0006285
-1.600000000000001e-05,-0.00264,0.000629
0.000128,-0.002144,0.0006295
0.00016,-0.00184,0.00063
0.00019199999999999998,-0.0016159999999999998,0.0006305
0.00017600000000000002,-0.001552,0.000631
0.000224,-0.001408,0.0006315
0.00028799999999999995,-0.001312,0.000632
0.00031999999999999997,-0.001328,0.0006325
0.000432,-0.001264,0.000633
0.000592,-0.0010559999999999999,0.0006335
0.000656,-0.000976,0.000634
0.0007199999999999999,-0.0009119999999999999,0.0006345
0.00104,-0.0005279999999999999,0.000635
0.001312,-0.00025599999999999993,0.0006355
0.001488,-0.0001119999999999999,0.000636
0.001616,0.0,0.0006365
0.0019039999999999999,0.000352,0.000637
0.00224,0.000816,0.0006375
0.00248,0.001104,0.000638
0.002688,0.001376,0.0006385
0.002784,0.0014880000000000002,0.000639
0.002992,0.0017280000000000004,0.0006395
0.003248,0.0019360000000000002,0.00064
0.00344,0.001968,0.0006405
0.003856,0.0022400000000000002,0.000641
0.003936,0.002,0.0006415
0.00408,0.0017280000000000004,0.000642
0.004304,0.00152,0.0006425
0.004608,0.0012800000000000003,0.000643
0.004944,0.0010080000000000002,0.0006435
0.005296,0.0007680000000000001,0.000644
0.0055839999999999996,0.0005280000000000001,0.0006445
0.005872,0.00025600000000000004,0.000645
0.006112,8.00000000000001e-05,0.0006455
0.006384,-4.7999999999999974e-05,0.000646
0.006656,-0.00012799999999999997,0.0006465
0.006896,-0.00023999999999999998,0.000647
0.00704,-0.00031999999999999997,0.0006475
0.007168,-0.000416,0.000648
0.007216,-0.0005119999999999999,0.0006485
0.007184,-0.0006559999999999999,0.000649
0.007264,-0.0004959999999999999,0.0006495
0.007328,-0.00025599999999999993,0.00065
0.00728,-0.00020799999999999996,0.0006505
0.00712,-0.0003039999999999999,0.000651
0.00704,-0.0003039999999999999,0.0006515
0.00712,-0.00020799999999999996,0.000652
0.007104,-0.00022399999999999992,0.0006525
0.007056,-0.00020799999999999996,0.000653
0.006944,-0.00025599999999999993,0.0006535
0.00688,-0.00025599999999999993,0.000654
0.006912,-0.0001919999999999999,0.0006545
0.006784,-0.00031999999999999997,0.000655
0.00696,-1.5999999999999955e-05,0.0006555
0.006816,-0.00017599999999999994,0.000656
0.00664,-0.00023999999999999998,0.0006565
0.006608,-7.999999999999999e-05,0.000657
0.006592,0.00012800000000000008,0.0006575
0.006576,0.0003200000000000001,0.000658
0.006576,0.000432,0.0006585
0.006592,0.00044800000000000016,0.000659
0.006592,0.0003040000000000001,0.0006595
0.006672,0.000192,0.00066
0.006784,0.00011200000000000001,0.0006605
0.00688,1.6000000000000064e-05,0.000661
0.006992,1.6000000000000064e-05,0.0006615
0.007088,3.200000000000002e-05,0.000662
0.007216,-3.199999999999991e-05,0.0006625
0.007344,-0.0001919999999999999,0.000663
0.007344,-0.000624,0.0006635
0.007456,-0.0009119999999999999,0.000664
0.007552,-0.0011359999999999999,0.0006645
0.007584,-0.0012799999999999999,0.000665
0.007552,-0.001376,0.0006655
0.007504,-0.001408,0.000666
0.0076,-0.001152,0.0006665
0.007664,-0.0009119999999999999,0.000667
0.007632,-0.000816,0.0006675
0.007584,-0.000752,0.000668
0.007504,-0.000704,0.0006685
0.007632,-0.00038399999999999996,0.000669
0.007552,-0.00035199999999999994,0.0006695
0.007792,0.00012800000000000008,0.00067
0.007856,0.00028799999999999995,0.0006705
0.007792,0.00014400000000000003,0.000671
0.007808000000000001,1.6000000000000064e-05,0.0006715
0.007952,1.6000000000000064e-05,0.000672
0.008,-6.399999999999993e-05,0.0006725
0.008048,-9.599999999999995e-05,0.000673
0.008096,-0.0001119999999999999,0.0006735
0.008144,-0.00017599999999999994,0.000674
0.008176,-0.0003039999999999999,0.0006745
0.008224,-0.00046399999999999995,0.000675
0.008256,-0.000624,0.0006755
0.008272,-0.000752,0.000676
0.008256,-0.0007999999999999999,0.0006765
0.008288,-0.0006879999999999999,0.000677
0.00832,-0.00046399999999999995,0.0006775
0.008256,-0.00036799999999999995,0.000678
0.00816,-0.00025599999999999993,0.0006785
0.008288,8.00000000000001e-05,0.000679
0.008288,0.00012800000000000008,0.0006795
0.00824,3.200000000000002e-05,0.00068
0.008176,-0.00012799999999999997,0.0006805
0.008192,-9.599999999999995e-05,0.000681
0.008224,-3.199999999999991e-05,0.0006815
0.00816,-4.7999999999999974e-05,0.000682
0.008144,4.800000000000008e-05,0.0006825
0.008,0.0,0.000683
0.008032,8.00000000000001e-05,0.0006835
0.008032,6.400000000000004e-05,0.000684
0.008064,1.6000000000000064e-05,0.0006845
0.00824,6.400000000000004e-05,0.000685
0.008224,-0.00028799999999999995,0.0006855
0.008256,-0.0005279999999999999,0.000686
0.008368,-0.0006079999999999999,0.0006865
0.00848,-0.0005759999999999999,0.000687
0.008544,-0.00038399999999999996,0.0006875
0.00856,-0.00015999999999999999,0.000688
0.00864,0.00014400000000000003,0.0006885
0.008656,0.0003200000000000001,0.000689
0.008672,0.000352,0.0006895
0.008624,0.00022400000000000013,0.00069
0.008592,0.00014400000000000003,0.0006905
0.008527999999999999,3.200000000000002e-05,0.000691
0.008416,-9.599999999999995e-05,0.0006915
0.008416,-1.5999999999999955e-05,0.000692
0.008336,0.0,0.0006925
0.008176,-7.999999999999999e-05,0.000693
0.008208,3.200000000000002e-05,0.0006935
0.00824,1.6000000000000064e-05,0.000694
0.008224,-0.00020799999999999996,0.0006945
0.008144,-0.0004959999999999999,0.000695
0.008224,-0.00046399999999999995,0.0006955
0.008416,-0.00015999999999999999,0.000696
0.008512,-1.5999999999999955e-05,0.0006965
0.00864,0.0001600000000000001,0.000697
0.008624,0.00012800000000000008,0.0006975
0.00872,0.000192,0.000698
0.008832,0.00025600000000000004,0.0006985
0.008912,0.00022400000000000013,0.000699
0.009136,0.0005440000000000001,0.0006995
0.008992,0.00044800000000000016,0.0007
0.008928,0.00048000000000000007,0.0007005
0.008896,0.000512,0.000701
0.008848,0.0004000000000000001,0.0007015
0.008848,0.00020799999999999996,0.000702
0.008848,3.200000000000002e-05,0.0007025
0.008784,-0.0001919999999999999,0.000703
0.00872,-0.00033599999999999993,0.0007035
0.008688,-0.00043199999999999993,0.000704
0.008704,-0.00038399999999999996,0.0007045
0.008768,-0.00025599999999999993,0.000705
0.0088,-0.00017599999999999994,0.0007055
0.008816,-0.00012799999999999997,0.000706
0.008864,-9.599999999999995e-05,0.0007065
0.00888,-0.00012799999999999997,0.000707
0.008832,-0.00020799999999999996,0.0007075
0.008976,3.200000000000002e-05,0.000708
0.009072,0.00011200000000000001,0.0007085
0.00912,3.200000000000002e-05,0.000709
0.00904,-9.599999999999995e-05,0.0007095
0.00904,3.200000000000002e-05,0.00071
0.009168,0.0003840000000000001,0.0007105
0.009216,0.000512,0.000711
0.009232,0.0004000000000000001,0.0007115
0.009136,4.800000000000008e-05,0.000712
0.009072,-0.000272,0.0007125
0.00912,-0.00046399999999999995,0.000713
0.009024,-0.0007359999999999999,0.0007135
0.009264,-0.00047999999999999996,0.000714
0.009136,-0.00056,0.0007145
0.00896,-0.0006079999999999999,0.000715
0.008928,-0.0004959999999999999,0.0007155
0.008944,-0.00043199999999999993,0.000716
0.00896,-0.0005279999999999999,0.0007165
0.008992,-0.0006559999999999999,0.000717
0.009024,-0.000704,0.0007175
0.00904,-0.0006399999999999999,0.000718
0.00904,-0.0004959999999999999,0.0007185
0.009072,-0.0003039999999999999,0.000719
0.009152,-0.00012799999999999997,0.0007195
0.009184,-0.00012799999999999997,0.00072
0.009216,-0.00017599999999999994,0.0007205
0.009328,-0.00014399999999999992,0.000721
0.009376,-0.00020799999999999996,0.0007215
0.00928,-0.0004959999999999999,0.000722
0.009392,-0.00047999999999999996,0.0007225
0.009488,-0.00043199999999999993,0.000723
0.009408,-0.00056,0.0007235
0.009232,-0.0007679999999999999,0.000724
0.009104,-0.0008799999999999999,0.0007245
0.009152,-0.0007679999999999999,0.000725
0.0092,-0.0006399999999999999,0.0007255
0.009216,-0.00056,0.000726
0.009136,-0.000592,0.0007265
0.009072,-0.000624,0.000727
0.009184,-0.00047999999999999996,0.0007275
0.009136,-0.0005759999999999999,0.000728
0.009455999999999999,-0.00025599999999999993,0.0007285
0.009552,-0.0003039999999999999,0.000729
0.009504,-0.0005119999999999999,0.0007295
0.009488,-0.0006399999999999999,0.00073
0.00952,-0.0006079999999999999,0.0007305
0.009568,-0.0004959999999999999,0.000731
0.009584,-0.00039999999999999996,0.0007315
0.009552,-0.00038399999999999996,0.000732
0.009488,-0.00033599999999999993,0.0007325
0.009392,-0.00025599999999999993,0.000733
0.009296,-0.00022399999999999992,0.0007335
0.0092,-0.00020799999999999996,0.000734
0.009152,-0.0001919999999999999,0.0007345
0.009088,-0.00022399999999999992,0.000735
0.009072,-9.599999999999995e-05,0.0007355
0.009056,4.800000000000008e-05,0.000736
0.008848,0.0,0.0007365
0.008848,0.00011200000000000001,0.000737
0.00896,0.0003200000000000001,0.0007375
0.008976,0.0003200000000000001,0.000738
0.008832,9.600000000000006e-05,0.0007385
0.008688,-7.999999999999999e-05,0.000739
0.008656,-4.7999999999999974e-05,0.0007395
0.00856,-7.999999999999999e-05,0.00074
0.008416,-0.00012799999999999997,0.0007405
0.008208,-0.00017599999999999994,0.000741
0.007888,-0.000272,0.0007415
0.007679999999999999,-1.5999999999999955e-05,0.000742
0.007296,1.6000000000000064e-05,0.0007425
0.007248,0.00036799999999999995,0.000743
0.007008,0.00033600000000000004,0.0007435
0.006704,0.00011200000000000001,0.000744
0.0065119999999999996,3.200000000000002e-05,0.0007445
0.006336,0.0,0.000745
0.006112,-7.999999999999999e-05,0.0007455
0.005888,0.0,0.000746
0.00568,0.00012800000000000008,0.0007465
0.00544,0.0002400000000000001,0.000747
0.005184,0.00028799999999999995,0.0007475
0.00488,0.00020799999999999996,0.000748
0.004528,-1.5999999999999955e-05,0.0007485
0.004176,-0.00028799999999999995,0.000749
0.0038079999999999998,-0.00046399999999999995,0.0007495
0.0034879999999999998,-0.0005119999999999999,0.00075
0.003168,-0.00036799999999999995,0.0007505
0.0027199999999999998,-0.00036799999999999995,0.000751
0.00232,-0.0003039999999999999,0.0007515
0.002064,-6.399999999999993e-05,0.000752
0.001792,-3.199999999999991e-05,0.0007525
0.0015199999999999999,-0.00014399999999999992,0.000753
0.0012,-0.0003039999999999999,0.0007535
0.0010559999999999999,-0.00023999999999999998,0.000754
0.000992,-7.999999999999999e-05,0.0007545
0.000768,-4.7999999999999974e-05,0.000755
0.000624,4.800000000000008e-05,0.0007555
0.000384,-1.5999999999999955e-05,0.000756
0.00031999999999999997,0.00011200000000000001,0.0007565
0.000144,9.600000000000006e-05,0.000757
0.00016,0.00033600000000000004,0.0007575
0.00017600000000000002,0.000512,0.000758
0.0,0.00022400000000000013,0.0007585
-6.4e-05,3.200000000000002e-05,0.000759
1.600000000000001e-05,0.0,0.0007595
7.999999999999999e-05,-3.199999999999991e-05,0.00076
0.000144,-6.399999999999993e-05,0.0007605
0.000208,-4.7999999999999974e-05,0.000761
0.00031999999999999997,0.0,0.0007615
0.000464,1.6000000000000064e-05,0.000762
0.000656,3.200000000000002e-05,0.0007625
0.0007999999999999999,3.200000000000002e-05,0.000763
0.000912,0.0,0.0007635
0.001072,4.800000000000008e-05,0.000764
0.001248,0.00012800000000000008,0.0007645
0.001392,0.0002400000000000001,0.000765
0.001456,0.00022400000000000013,0.0007655
0.001424,9.600000000000006e-05,0.000766
0.001584,0.00022400000000000013,0.0007665
0.001664,0.000272,0.000767
0.001712,0.00020799999999999996,0.0007675
0.001648,-4.7999999999999974e-05,0.000768
0.001584,-0.00020799999999999996,0.0007685
0.00168,-7.999999999999999e-05,0.000769
0.001712,0.0,0.0007695
0.001664,-4.7999999999999974e-05,0.00077
0.0015199999999999999,-0.0001919999999999999,0.0007705
0.001472,-0.00017599999999999994,0.000771
0.001472,-7.999999999999999e-05,0.0007715
0.0013599999999999999,-0.0001919999999999999,0.000772
0.001488,3.200000000000002e-05,0.0007725
0.0013599999999999999,-0.0001119999999999999,0.000773
0.001184,-0.0001919999999999999,0.0007735
0.001136,0.0,0.000774
0.001104,0.00020799999999999996,0.0007745
0.00104,0.00036799999999999995,0.000775
0.0009759999999999999,0.00036799999999999995,0.0007755
0.000928,0.000272,0.000776
0.000864,6.400000000000004e-05,0.0007765
0.000832,-7.999999999999999e-05,0.000777
0.000816,-6.399999999999993e-05,0.0007775
0.000784,-3.199999999999991e-05,0.000778
0.000704,-1.5999999999999955e-05,0.0007785
0.0006879999999999999,3.200000000000002e-05,0.000779
0.0006879999999999999,0.00012800000000000008,0.0007795
0.000624,0.00011200000000000001,0.00078
0.000496,-6.399999999999993e-05,0.0007805
0.000592,6.400000000000004e-05,0.000781
0.000672,0.0001600000000000001,0.0007815
0.0006079999999999999,1.6000000000000064e-05,0.000782
0.0005279999999999999,-0.00022399999999999992,0.0007825
0.000544,-0.00025599999999999993,0.000783
0.0006879999999999999,-7.999999999999999e-05,0.0007835
0.0007999999999999999,9.600000000000006e-05,0.000784
0.000864,0.00014400000000000003,0.0007845
0.000848,6.400000000000004e-05,0.000785
0.000864,8.00000000000001e-05,0.0007855
0.001024,0.00020799999999999996,0.000786
0.001072,6.400000000000004e-05,0.0007865
0.001344,0.00028799999999999995,0.000787
0.0012799999999999999,3.200000000000002e-05,0.0007875
0.001216,-7.999999999999999e-05,0.000788
0.0012,0.0,0.0007885
0.0012,0.00014400000000000003,0.000789
0.001184,0.00028799999999999995,0.0007895
0.001136,0.0003840000000000001,0.00079
0.001088,0.00041600000000000003,0.0007905
0.00104,0.0003200000000000001,0.000791
0.001024,0.00020799999999999996,0.0007915
0.0009759999999999999,3.200000000000002e-05,0.000792
0.000944,-6.399999999999993e-05,0.0007925
0.000928,-9.599999999999995e-05,0.000793
0.0008959999999999999,-9.599999999999995e-05,0.0007935
0.0008799999999999999,3.200000000000002e-05,0.000794
0.000912,0.00020799999999999996,0.0007945
0.0007999999999999999,8.00000000000001e-05,0.000795
0.0007999999999999999,3.200000000000002e-05,0.0007955
0.0008959999999999999,6.400000000000004e-05,0.000796
0.000912,0.0,0.0007965
0.000832,-0.0001919999999999999,0.000797
0.0007999999999999999,-0.00023999999999999998,0.0007975
0.0009759999999999999,4.800000000000008e-05,0.000798
0.0010559999999999999,0.000272,0.0007985
0.001072,0.0003200000000000001,0.000799
0.001072,0.0003040000000000001,0.0007995
0.00104,0.0001600000000000001,0.0008
0.001152,0.00020799999999999996,0.0008005
0.001136,9.600000000000006e-05,0.000801
0.001424,0.0004000000000000001,0.0008015
0.001376,0.00025600000000000004,0.000802
0.001232,-3.199999999999991e-05,0.0008025
0.001216,-0.0001119999999999999,0.000803
0.001216,-0.0001119999999999999,0.0008035
0.0012,-0.00012799999999999997,0.000804
0.001184,-7.999999999999999e-05,0.0008045
0.001088,-1.5999999999999955e-05,0.000805
0.0009599999999999999,-1.5999999999999955e-05,0.0008055
0.000864,-1.5999999999999955e-05,0.000806
0.0007999999999999999,1.6000000000000064e-05,0.0008065
0.000704,0.0,0.000807
0.000704,4.800000000000008e-05,0.0008075
0.0007199999999999999,0.00014400000000000003,0.000808
0.000736,0.00017600000000000005,0.0008085
0.000784,0.00017600000000000005,0.000809
0.000768,0.0,0.0008095
0.0008799999999999999,-6.399999999999993e-05,0.00081
0.001072,4.800000000000008e-05,0.0008105
0.001152,4.800000000000008e-05,0.000811
0.001184,-6.399999999999993e-05,0.0008115
0.001152,-0.0001919999999999999,0.000812
0.001248,-0.00012799999999999997,0.0008125
0.001376,-7.999999999999999e-05,0.000813
0.001376,-7.999999999999999e-05,0.0008135
0.001328,-7.999999999999999e-05,0.000814
0.001216,-9.599999999999995e-05,0.0008145
0.001264,0.0001600000000000001,0.000815
0.001152,0.00011200000000000001,0.0008155
0.001248,0.0003840000000000001,0.000816
0.001248,0.00044800000000000016,0.0008165
0.0010559999999999999,0.000192,0.000817
0.001008,9.600000000000006e-05,0.0008175
0.0009759999999999999,0.00011200000000000001,0.000818
0.0009759999999999999,0.00014400000000000003,0.0008185
0.0009759999999999999,0.0001600000000000001,0.000819
0.001024,0.00014400000000000003,0.0008195
0.001072,4.800000000000008e-05,0.00082
0.001104,-0.00012799999999999997,0.0008205
0.001136,-0.00025599999999999993,0.000821
0.001184,-0.00033599999999999993,0.0008215
0.001184,-0.00036799999999999995,0.000822
0.001232,-0.00028799999999999995,0.0008225
0.001312,-0.00012799999999999997,0.000823
0.001392,3.200000000000002e-05,0.0008235
0.001296,-4.7999999999999974e-05,0.000824
0.001232,-7.999999999999999e-05,0.0008245
0.001376,0.00022400000000000013,0.000825
0.001408,0.00028799999999999995,0.0008255
0.001312,0.00012800000000000008,0.000826
0.0012,-4.7999999999999974e-05,0.0008265
0.001184,-1.5999999999999955e-05,0.000827
0.001232,0.00017600000000000005,0.0008275
0.0012,0.00025600000000000004,0.000828
0.001184,0.0003040000000000001,0.0008285
0.001088,9.600000000000006e-05,0.000829
0.001136,4.800000000000008e-05,0.0008295
0.001152,-9.599999999999995e-05,0.00083
0.001216,-0.0001919999999999999,0.0008305
0.001392,-6.399999999999993e-05,0.000831
0.001328,-0.00017599999999999994,0.0008315
0.001296,-0.0001919999999999999,0.000832
0.001328,-7.999999999999999e-05,0.0008325
0.001376,1.6000000000000064e-05,0.000833
0.001392,0.00011200000000000001,0.0008335
0.001376,0.0001600000000000001,0.000834
0.0013599999999999999,0.000192,0.0008345
0.001296,0.00017600000000000005,0.000835
0.001184,9.600000000000006e-05,0.0008355
0.001104,0.00011200000000000001,0.000836
0.00104,0.00017600000000000005,0.0008365
0.000928,0.00017600000000000005,0.000837
0.000848,0.00014400000000000003,0.0008375
0.000816,0.00028799999999999995,0.000838
0.000768,0.00033600000000000004,0.0008385
0.000672,0.00025600000000000004,0.000839
0.000768,0.00033600000000000004,0.0008395
0.000848,0.00033600000000000004,0.00084
0.000864,0.000192,0.0008405
0.000832,1.6000000000000064e-05,0.000841
0.000736,1.6000000000000064e-05,0.0008415
0.000864,0.0001600000000000001,0.000842
0.0008959999999999999,0.0002400000000000001,0.0008425
0.0009599999999999999,0.00033600000000000004,0.000843
0.000832,0.00012800000000000008,0.0008435
0.000768,3.200000000000002e-05,0.000844
0.000752,6.400000000000004e-05,0.0008445
0.00056,0.0,0.000845
0.0006079999999999999,0.0003040000000000001,0.0008455
0.000384,0.00025600000000000004,0.000846
0.000128,0.00012800000000000008,0.0008465
0.0,0.00011200000000000001,0.000847
-0.000176,3.200000000000002e-05,0.0008475
-0.000304,-1.5999999999999955e-05,0.000848
-0.000368,1.6000000000000064e-05,0.0008485
-0.00044800000000000005,3.200000000000002e-05,0.000849
-0.000544,1.6000000000000064e-05,0.0008495
-0.000576,3.200000000000002e-05,0.00085
-0.000608,6.400000000000004e-05,0.0008505
-0.00064,6.400000000000004e-05,0.000851
-0.000688,3.200000000000002e-05,0.0008515
-0.000704,0.0,0.000852
-0.000768,-3.199999999999991e-05,0.0008525
-0.000912,-0.00014399999999999992,0.000853
-0.001184,-0.0003039999999999999,0.0008535
-0.001312,-0.00017599999999999994,0.000854
-0.001456,8.00000000000001e-05,0.0008545
-0.001744,0.000192,0.000855
-0.002128,8.00000000000001e-05,0.0008555
-0.002448,-3.199999999999991e-05,0.000856
-0.00264,-1.5999999999999955e-05,0.0008565
-0.00288,0.0,0.000857
-0.003184,0.0,0.0008575
-0.003552,-4.7999999999999974e-05,0.000858
-0.003824,-3.199999999999991e-05,0.0008585
-0.003984,8.00000000000001e-05,0.000859
-0.004272,-3.199999999999991e-05,0.0008595
-0.004224,0.00025600000000000004,0.00086
-0.004496,4.800000000000008e-05,0.0008605
-0.0048000000000000004,-0.00022399999999999992,0.000861
-0.004944,-0.00023999999999999998,0.0008615
-0.005024,-9.599999999999995e-05,0.000862
-0.005152,0.0,0.0008625
-0.005312,0.00012800000000000008,0.000863
-0.005504,0.0001600000000000001,0.0008635
-0.005744,9.600000000000006e-05,0.000864
-0.006,0.0,0.0008645
-0.006176,-1.5999999999999955e-05,0.000865
-0.006384,-3.199999999999991e-05,0.0008655
-0.00664,-7.999999999999999e-05,0.000866
-0.006864,-6.399999999999993e-05,0.0008665
-0.006976,6.400000000000004e-05,0.000867
-0.007168,4.800000000000008e-05,0.0008675
-0.007376,-9.599999999999995e-05,0.000868
-0.007296,-1.5999999999999955e-05,0.0008685
-0.007232,-1.5999999999999955e-05,0.000869
-0.007232,-0.00017599999999999994,0.0008695
-0.007264,-0.000416,0.00087
-0.0072,-0.00044799999999999994,0.0008705
-0.006992,-0.00020799999999999996,0.000871
-0.006848,0.0,0.0008715
-0.00672,0.00017600000000000005,0.000872
-0.006736,4.800000000000008e-05,0.0008725
-0.0066560000000000005,0.0,0.000873
-0.006528,1.6000000000000064e-05,0.0008735
-0.006576,-0.00022399999999999992,0.000874
-0.006352,-6.399999999999993e-05,0.0008745
-0.006384,-0.0001119999999999999,0.000875
-0.00656,-0.00020799999999999996,0.0008755
-0.00664,-0.0001119999999999999,0.000876
-0.0066560000000000005,3.200000000000002e-05,0.0008765
-0.006736,8.00000000000001e-05,0.000877
-0.006816,0.00011200000000000001,0.0008775
-0.006912,3.200000000000002e-05,0.000878
-0.006976,-7.999999999999999e-05,0.0008785
-0.00704,-0.00022399999999999992,0.000879
-0.007104,-0.0003039999999999999,0.0008795
-0.007152,-0.00020799999999999996,0.00088
-0.0072,-7.999999999999999e-05,0.0008805
-0.007344,1.6000000000000064e-05,0.000881
-0.00744,0.00014400000000000003,0.0008815
-0.007472,0.00022400000000000013,0.000882
-0.007664,1.6000000000000064e-05,0.0008825
-0.00776,-0.0001119999999999999,0.000883
-0.007744,-0.00012799999999999997,0.0008835
-0.007856,-0.00025599999999999993,0.000884
-0.008,-0.00038399999999999996,0.0008845
-0.008112,-0.00044799999999999994,0.000885
-0.008064,-0.00028799999999999995,0.0008855
-0.008032,-0.0001119999999999999,0.000886
-0.008032,-6.399999999999993e-05,0.0008865
-0.008,-7.999999999999999e-05,0.000887
-0.008064,-0.000272,0.0008875
-0.00792,-0.00025599999999999993,0.000888
-0.007904,-0.00036799999999999995,0.0008885
-0.007632,-0.00014399999999999992,0.000889
-0.007488,-4.7999999999999974e-05,0.0008895
-0.007568,-0.00020799999999999996,0.00089
-0.007552,-0.0001919999999999999,0.0008905
-0.007504,-4.7999999999999974e-05,0.000891
-0.00752,3.200000000000002e-05,0.0008915
-0.00752,8.00000000000001e-05,0.000892
-0.007568,4.800000000000008e-05,0.0008925
-0.007712,-3.199999999999991e-05,0.000893
-0.00784,-0.0001119999999999999,0.0008935
-0.007951999999999999,-0.00015999999999999999,0.000894
-0.008064,-0.0001919999999999999,0.0008945
-0.008192,-0.0001919999999999999,0.000895
-0.008272,-0.00014399999999999992,0.0008955
-0.008352,-9.599999999999995e-05,0.000896
-0.008384,-1.5999999999999955e-05,0.0008965
-0.008448,-0.0001119999999999999,0.000897
-0.00856,-0.00025599999999999993,0.0008975
-0.008464,-9.599999999999995e-05,0.000898
-0.0084,1.6000000000000064e-05,0.0008985
-0.0084,3.200000000000002e-05,0.000899
-0.00848,-0.00012799999999999997,0.0008995
-0.00848,-0.0001919999999999999,0.0009
-0.008384,-7.999999999999999e-05,0.0009005
-0.008352,-4.7999999999999974e-05,0.000901
-0.008336,-1.5999999999999955e-05,0.0009015
-0.008448,-0.00020799999999999996,0.000902
-0.008496,-0.000272,0.0009025
-0.008528,-0.00022399999999999992,0.000903
-0.008608,-0.0001919999999999999,0.0009035
-0.008416,0.00020799999999999996,0.000904
-0.008544,4.800000000000008e-05,0.0009045
-0.008624,-0.0001119999999999999,0.000905
-0.008624,-0.00012799999999999997,0.0009055
-0.008576,-0.00015999999999999999,0.000906
-0.00856,-0.0001919999999999999,0.0009065
-0.008528,-0.0001919999999999999,0.000907
-0.008528,-0.00020799999999999996,0.0009075
-0.008512,-0.00022399999999999992,0.000908
-0.008512,-0.00012799999999999997,0.0009085
-0.008512,-7.999999999999999e-05,0.000909
-0.008576,-9.599999999999995e-05,0.0009095
-0.008656,-0.00015999999999999999,0.00091
-0.008736,-0.00025599999999999993,0.0009105
-0.008784,-0.00033599999999999993,0.000911
-0.008848,-0.00039999999999999996,0.0009115
-0.009056,-0.000592,0.000912
-0.00912,-0.00044799999999999994,0.0009125
-0.009104,-0.00015999999999999999,0.000913
-0.009136,-4.7999999999999974e-05,0.0009135
-0.009232,-0.0001119999999999999,0.000914
-0.009264,-0.000272,0.0009145
-0.009136,-0.0003039999999999999,0.000915
-0.009008,-0.00033599999999999993,0.0009155
-0.008944,-0.00044799999999999994,0.000916
-0.008864,-0.00046399999999999995,0.0009165
-0.00888,-0.000592,0.000917
-0.008752,-0.0005119999999999999,0.0009175
-0.008832,-0.0007359999999999999,0.000918
-0.00864,-0.0005279999999999999,0.0009185
-0.008576,-0.00046399999999999995,0.000919
-0.008752,-0.0006559999999999999,0.0009195
-0.00888,-0.0007679999999999999,0.00092
-0.00896,-0.0008799999999999999,0.0009205
-0.009088,-0.000976,0.000921
-0.009168,-0.001072,0.0009215
-0.009232,-0.001088,0.000922
-0.009328,-0.001104,0.0009225
-0.009424,-0.001184,0.000923
-0.009488,-0.0012799999999999999,0.0009235
-0.00952,-0.001408,0.000924
-0.009552,-0.001536,0.0009245
-0.00952,-0.001632,0.000925
-0.009472,-0.001728,0.0009255
-0.009376,-0.001824,0.000926
-0.009392,-0.002128,0.0009265
-0.009424,-0.002384,0.000927
-0.009264,-0.002352,0.0009275
-0.0092,-0.00248,0.000928
-0.009232,-0.0027199999999999998,0.0009285
-0.009296,-0.0030559999999999997,0.000929
-0.009344,-0.003328,0.0009295
-0.009296,-0.003456,0.00093
-0.009296,-0.003632,0.0009305
-0.009344,-0.0038239999999999997,0.000931
-0.009536,-0.004288,0.0009315
-0.009600000000000001,-0.00464,0.000932
-0.009568,-0.00496,0.0009325
-0.009664,-0.005536,0.000933
-0.009488,-0.005744,0.0009335
-0.009600000000000001,-0.006464,0.000934
-0.009696,-0.007248,0.0009345
-0.009712,-0.007904,0.000935
-0.00968,-0.008464,0.0009355
-0.009664,-0.009023999999999999,0.000936
-0.00968,-0.009568,0.0009365
-0.00968,-0.010176,0.000937
-0.009696,-0.010879999999999999,0.0009375
-0.00968,-0.0116,0.000938
-0.009664,-0.012272,0.0009385
-0.009664,-0.012943999999999999,0.000939
-0.009712,-0.0136,0.0009395
-0.009728,-0.014176,0.00094
-0.00968,-0.014575999999999999,0.0009405
-0.009632,-0.015007999999999999,0.000941
-0.009712,-0.015648,0.0009415
-0.009696,-0.016064000000000002,0.000942
-0.009616,-0.016432,0.0009425
-0.009616,-0.01688,0.000943
-0.009664,-0.017248,0.0009435
-0.009696,-0.017408,0.000944
-0.009616,-0.017312,0.0009445
-0.009584,-0.017248,0.000945
-0.009616,-0.017263999999999998,0.0009455
-0.009664,-0.017296,0.000946
-0.00976,-0.01736,0.0009465
-0.00968,-0.017072,0.000947
-0.00976,-0.016912,0.0009475
-0.009584,-0.01632,0.000948
-0.009536,-0.015888,0.0009485
-0.009632,-0.015664,0.000949
-0.009616,-0.01528,0.0009495
-0.009536,-0.014735999999999999,0.00095
-0.009472,-0.014159999999999999,0.0009505
-0.009344,-0.013519999999999999,0.000951
-0.009296,-0.013023999999999999,0.0009515
-0.009216,-0.012544,0.000952
-0.00912,-0.012048,0.0009525
-0.009024,-0.011647999999999999,0.000953
-0.008976,-0.011295999999999999,0.0009535
-0.008864,-0.010863999999999999,0.000954
-0.008736,-0.010431999999999999,0.0009545
-0.008624,-0.010095999999999999,0.000955
-0.00848,-0.00976,0.0009555
-0.008416,-0.009632,0.000956
-0.008368,-0.009616,0.0009565
-0.008112,-0.009455999999999999,0.000957
-0.00792,-0.009424,0.0009575
-0.007792,-0.009568,0.000958
-0.00768,-0.009807999999999999,0.0009585
-0.007456,-0.009935999999999999,0.000959
-0.007136,-0.010048,0.0009595
-0.006928,-0.010336,0.00096
-0.006672,-0.010608,0.0009605
-0.006512,-0.011072,0.000961
-0.00624,-0.011424,0.0009615
-0.005936,-0.011744,0.000962
-0.00568,-0.012128,0.0009625
-0.0052640000000000004,-0.012303999999999999,0.000963
-0.005136,-0.012896,0.0009635
-0.00496,-0.013359999999999999,0.000964
-0.004704,-0.013727999999999999,0.0009645
-0.004448,-0.014048,0.000965
-0.004192,-0.014256,0.0009655
-0.003935999999999999,-0.014416,0.000966
-0.00376,-0.014528,0.0009665
-0.0036320000000000002,-0.014511999999999999,0.000967
-0.003344,-0.014431999999999999,0.0009675
-0.003072,-0.014367999999999999,0.000968
-0.0028,-0.014256,0.0009685
-0.002528,-0.013968,0.000969
-0.002224,-0.013519999999999999,0.0009695
-0.001936,-0.013007999999999999,0.00097
-0.0016640000000000001,-0.012511999999999999,0.0009705
-0.00152,-0.012176,0.000971
-0.0012000000000000001,-0.011568,0.0009715
-0.000928,-0.011072,0.000972
-0.0007840000000000001,-0.010735999999999999,0.0009725
-0.000704,-0.010464,0.000973
-0.000608,-0.010176,0.0009735
-0.000384,-0.009744,0.000974
-0.000256,-0.009472,0.0009745
-0.000272,-0.009311999999999999,0.000975
-0.00033600000000000004,-0.00936,0.0009755
-0.000352,-0.009392,0.000976
-0.00024,-0.009311999999999999,0.0009765
-0.00033600000000000004,-0.009552,0.000977
-9.6e-05,-0.009439999999999999,0.0009775
-0.00016,-0.009807999999999999,0.000978
-0.000352,-0.010303999999999999,0.0009785
-0.00039999999999999996,-0.010704,0.000979
-0.000368,-0.011072,0.0009795
-0.000352,-0.011488,0.00098
-0.00039999999999999996,-0.011968,0.0009805
-0.000512,-0.012431999999999999,0.000981
-0.000656,-0.012832,0.0009815
-0.0008,-0.013087999999999999,0.000982
-0.00088,-0.013215999999999999,0.0009825
-0.001008,-0.013312,0.000983
-0.001168,-0.013375999999999999,0.0009835
-0.00128,-0.013375999999999999,0.000984
-0.00136,-0.013248,0.0009845
-0.00144,-0.013023999999999999,0.000985
-0.0016,-0.012848,0.0009855
-0.001536,-0.01232,0.000986
-0.0014240000000000001,-0.011744,0.0009865
-0.001408,-0.011295999999999999,0.000987
-0.0014240000000000001,-0.01096,0.0009875
-0.001392,-0.01064,0.000988
-0.001248,-0.010223999999999999,0.0009885
-0.001072,-0.00992,0.000989
-0.001024,-0.00976,0.0009895
-0.001056,-0.009696,0.00099
-0.001072,-0.009632,0.0009905
-0.000896,-0.009344,0.000991
-0.000976,-0.009472,0.0009915
-0.000768,-0.009248,0.000992
-0.000768,-0.009311999999999999,0.0009925
-0.0008640000000000001,-0.009583999999999999,0.000993
-0.000912,-0.009904,0.0009935
-0.000896,-0.010128,0.000994
-0.0008640000000000001,-0.010367999999999999,0.0009945
-0.0008320000000000001,-0.010655999999999999,0.000995
-0.0008320000000000001,-0.01096,0.0009955
-0.0008320000000000001,-0.01128,0.000996
-0.000848,-0.011568,0.0009965
-0.000896,-0.011904,0.000997
-0.000912,-0.012128,0.0009975
-0.000928,-0.012336,0.000998
-0.000992,-0.012496,0.0009985
-0.001088,-0.012544,0.000999
