# Incident [V], Transmitted [V], time [s]
0.0,0.0,0.0
9.6e-05,8.000000000000005e-05,5e-07
0.000192,0.00019200000000000006,1e-06
0.00014400000000000003,0.00014399999999999998,1.5e-06
7.999999999999999e-05,8.000000000000005e-05,2e-06
4.7999999999999974e-05,6.399999999999998e-05,2.5e-06
7.999999999999999e-05,9.6e-05,3e-06
0.00011200000000000001,0.00014399999999999998,3.5e-06
0.00012799999999999997,0.00016000000000000004,4e-06
0.00011200000000000001,0.00012800000000000002,4.5e-06
-7.999999999999999e-05,-1.600000000000001e-05,5e-06
1.600000000000001e-05,3.200000000000002e-05,5.5e-06
-3.200000000000002e-05,1.600000000000001e-05,6e-06
0.00022400000000000002,0.000256,6.5e-06
0.00017599999999999994,0.00024000000000000003,7e-06
0.0,6.399999999999998e-05,7.5e-06
1.600000000000001e-05,4.800000000000003e-05,8e-06
7.999999999999999e-05,8.000000000000005e-05,8.5e-06
4.7999999999999974e-05,6.399999999999998e-05,9e-06
7.999999999999999e-05,9.6e-05,9.5e-06
7.999999999999999e-05,9.6e-05,1e-05
7.999999999999999e-05,8.000000000000005e-05,1.05e-05
0.00012799999999999997,0.00011199999999999996,1.1e-05
0.00012799999999999997,9.6e-05,1.15e-05
6.399999999999998e-05,6.399999999999998e-05,1.2e-05
7.999999999999999e-05,8.000000000000005e-05,1.25e-05
0.00014400000000000003,0.00014399999999999998,1.3e-05
0.00011200000000000001,0.00011199999999999996,1.35e-05
9.6e-05,9.6e-05,1.4e-05
6.399999999999998e-05,6.399999999999998e-05,1.45e-05
7.999999999999999e-05,8.000000000000005e-05,1.5e-05
0.00014400000000000003,0.00014399999999999998,1.55e-05
0.00014400000000000003,0.00016000000000000004,1.6e-05
0.00011200000000000001,0.00012800000000000002,1.65e-05
3.1999999999999965e-05,4.800000000000003e-05,1.7e-05
7.999999999999999e-05,8.000000000000005e-05,1.75e-05
0.00017599999999999994,0.00016000000000000004,1.8e-05
0.00020799999999999996,0.000176,1.85e-05
0.00015999999999999999,0.00012800000000000002,1.9e-05
-1.600000000000001e-05,-3.200000000000002e-05,1.95e-05
7.999999999999999e-05,4.800000000000003e-05,2e-05
0.0,1.600000000000001e-05,2.05e-05
0.00023999999999999998,0.00022399999999999997,2.1e-05
0.00020799999999999996,0.00020800000000000001,2.15e-05
6.399999999999998e-05,8.000000000000005e-05,2.2e-05
6.399999999999998e-05,6.399999999999998e-05,2.25e-05
7.999999999999999e-05,6.399999999999998e-05,2.3e-05
6.399999999999998e-05,6.399999999999998e-05,2.35e-05
6.399999999999998e-05,8.000000000000005e-05,2.4e-05
7.999999999999999e-05,9.6e-05,2.45e-05
7.999999999999999e-05,0.00011199999999999996,2.5e-05
7.999999999999999e-05,0.00011199999999999996,2.55e-05
6.399999999999998e-05,8.000000000000005e-05,2.6e-05
7.999999999999999e-05,9.6e-05,2.65e-05
0.00012799999999999997,0.00012800000000000002,2.7e-05
4.7999999999999974e-05,6.399999999999998e-05,2.75e-05
0.00011200000000000001,0.00011199999999999996,2.8e-05
0.00015999999999999999,0.00014399999999999998,2.85e-05
6.399999999999998e-05,6.399999999999998e-05,2.9e-05
0.0,0.0,2.95e-05
0.00015999999999999999,0.00014399999999999998,3e-05
0.00023999999999999998,0.00020800000000000001,3.05e-05
0.00014400000000000003,0.00012800000000000002,3.1e-05
-3.200000000000002e-05,-3.200000000000002e-05,3.15e-05
6.399999999999998e-05,4.800000000000003e-05,3.2e-05
0.00022400000000000002,0.000176,3.25e-05
0.00022400000000000002,0.000176,3.3e-05
7.999999999999999e-05,6.399999999999998e-05,3.35e-05
-7.999999999999999e-05,-6.399999999999998e-05,3.4e-05
6.399999999999998e-05,6.399999999999998e-05,3.45e-05
-1.600000000000001e-05,3.200000000000002e-05,3.5e-05
0.00022400000000000002,0.000256,3.55e-05
0.00011200000000000001,0.00019200000000000006,3.6e-05
3.1999999999999965e-05,0.00011199999999999996,3.65e-05
1.600000000000001e-05,8.000000000000005e-05,3.7e-05
1.600000000000001e-05,8.000000000000005e-05,3.75e-05
1.600000000000001e-05,8.000000000000005e-05,3.8e-05
4.7999999999999974e-05,0.00011199999999999996,3.85e-05
6.399999999999998e-05,0.00011199999999999996,3.9e-05
7.999999999999999e-05,0.00012800000000000002,3.95e-05
7.999999999999999e-05,0.00011199999999999996,4e-05
4.7999999999999974e-05,9.6e-05,4.05e-05
6.399999999999998e-05,9.6e-05,4.1e-05
9.6e-05,0.00011199999999999996,4.15e-05
7.999999999999999e-05,9.6e-05,4.2e-05
7.999999999999999e-05,9.6e-05,4.25e-05
0.00014400000000000003,0.00014399999999999998,4.3e-05
-1.600000000000001e-05,1.600000000000001e-05,4.35e-05
1.600000000000001e-05,3.200000000000002e-05,4.4e-05
0.00012799999999999997,0.00014399999999999998,4.45e-05
0.00017599999999999994,0.00019200000000000006,4.5e-05
6.399999999999998e-05,8.000000000000005e-05,4.55e-05
-7.999999999999999e-05,-1.600000000000001e-05,4.6e-05
6.399999999999998e-05,9.6e-05,4.65e-05
0.00022400000000000002,0.00022399999999999997,4.7e-05
0.00017599999999999994,0.000176,4.75e-05
0.0,3.200000000000002e-05,4.8e-05
-4.800000000000003e-05,-3.200000000000002e-05,4.85e-05
9.6e-05,8.000000000000005e-05,4.9e-05
0.0,1.600000000000001e-05,4.95e-05
0.00022400000000000002,0.00024000000000000003,5e-05
0.00015999999999999999,0.00019200000000000006,5.05e-05
4.7999999999999974e-05,8.000000000000005e-05,5.1e-05
3.1999999999999965e-05,6.399999999999998e-05,5.15e-05
6.399999999999998e-05,8.000000000000005e-05,5.2e-05
6.399999999999998e-05,9.6e-05,5.25e-05
6.399999999999998e-05,8.000000000000005e-05,5.3e-05
9.6e-05,0.00011199999999999996,5.35e-05
9.6e-05,0.00012800000000000002,5.4e-05
7.999999999999999e-05,9.6e-05,5.45e-05
6.399999999999998e-05,9.6e-05,5.5e-05
0.00011200000000000001,0.00012800000000000002,5.55e-05
7.999999999999999e-05,0.00011199999999999996,5.6e-05
4.7999999999999974e-05,8.000000000000005e-05,5.65e-05
0.00012799999999999997,0.00014399999999999998,5.7e-05
0.00012799999999999997,0.00014399999999999998,5.75e-05
-3.200000000000002e-05,1.600000000000001e-05,5.8e-05
4.7999999999999974e-05,8.000000000000005e-05,5.85e-05
0.00017599999999999994,0.00019200000000000006,5.9e-05
0.00022400000000000002,0.00022399999999999997,5.95e-05
6.399999999999998e-05,6.399999999999998e-05,6e-05
-3.200000000000002e-05,-1.600000000000001e-05,6.05e-05
0.00012799999999999997,0.00012800000000000002,6.1e-05
0.00023999999999999998,0.00022399999999999997,6.15e-05
0.000192,0.000176,6.2e-05
0.0,0.0,6.25e-05
3.1999999999999965e-05,0.0,6.3e-05
0.00012799999999999997,9.6e-05,6.35e-05
4.7999999999999974e-05,6.399999999999998e-05,6.4e-05
0.00025600000000000004,0.00024000000000000003,6.45e-05
0.00015999999999999999,0.000176,6.5e-05
6.399999999999998e-05,8.000000000000005e-05,6.55e-05
4.7999999999999974e-05,6.399999999999998e-05,6.6e-05
4.7999999999999974e-05,6.399999999999998e-05,6.65e-05
7.999999999999999e-05,9.6e-05,6.7e-05
9.6e-05,0.00011199999999999996,6.75e-05
9.6e-05,0.00011199999999999996,6.8e-05
9.6e-05,9.6e-05,6.85e-05
6.399999999999998e-05,8.000000000000005e-05,6.9e-05
7.999999999999999e-05,8.000000000000005e-05,6.95e-05
0.00011200000000000001,0.00011199999999999996,7e-05
7.999999999999999e-05,8.000000000000005e-05,7.05e-05
6.399999999999998e-05,6.399999999999998e-05,7.1e-05
0.00014400000000000003,0.00012800000000000002,7.15e-05
0.00012799999999999997,0.00011199999999999996,7.2e-05
-3.200000000000002e-05,-1.600000000000001e-05,7.25e-05
7.999999999999999e-05,8.000000000000005e-05,7.3e-05
0.00020799999999999996,0.00019200000000000006,7.35e-05
0.00017599999999999994,0.000176,7.4e-05
-1.600000000000001e-05,1.600000000000001e-05,7.45e-05
-3.200000000000002e-05,0.0,7.5e-05
0.00017599999999999994,0.00019200000000000006,7.55e-05
0.000192,0.00022399999999999997,7.6e-05
9.6e-05,0.00014399999999999998,7.65e-05
-6.399999999999998e-05,0.0,7.7e-05
0.0,4.800000000000003e-05,7.75e-05
1.600000000000001e-05,8.000000000000005e-05,7.8e-05
-1.600000000000001e-05,6.399999999999998e-05,7.85e-05
0.00015999999999999999,0.00024000000000000003,7.9e-05
9.6e-05,0.000176,7.95e-05
-1.600000000000001e-05,8.000000000000005e-05,8e-05
-4.800000000000003e-05,4.800000000000003e-05,8.05e-05
-3.200000000000002e-05,4.800000000000003e-05,8.1e-05
-1.600000000000001e-05,8.000000000000005e-05,8.15e-05
3.1999999999999965e-05,0.00011199999999999996,8.2e-05
1.600000000000001e-05,0.00011199999999999996,8.25e-05
0.0,8.000000000000005e-05,8.3e-05
-1.600000000000001e-05,6.399999999999998e-05,8.35e-05
4.7999999999999974e-05,0.00011199999999999996,8.4e-05
6.399999999999998e-05,9.6e-05,8.45e-05
6.399999999999998e-05,8.000000000000005e-05,8.5e-05
6.399999999999998e-05,6.399999999999998e-05,8.55e-05
0.00023999999999999998,0.000176,8.6e-05
0.00012799999999999997,4.800000000000003e-05,8.65e-05
9.6e-05,-3.200000000000002e-05,8.7e-05
0.00036799999999999995,0.00014399999999999998,8.75e-05
0.00044799999999999994,0.00019200000000000006,8.8e-05
0.00044799999999999994,0.00014399999999999998,8.85e-05
0.00028799999999999995,-4.7999999999999974e-05,8.9e-05
0.00044799999999999994,1.600000000000001e-05,8.95e-05
0.000704,0.000176,9e-05
0.0007359999999999999,0.00014399999999999998,9.05e-05
0.0007520000000000001,3.200000000000002e-05,9.1e-05
0.0007359999999999999,-0.00011200000000000001,9.15e-05
0.001056,-1.600000000000001e-05,9.2e-05
0.001168,-4.7999999999999974e-05,9.25e-05
0.001488,3.200000000000002e-05,9.3e-05
0.001808,0.00011199999999999996,9.35e-05
0.001936,0.0,9.4e-05
0.0020800000000000003,-7.999999999999999e-05,9.45e-05
0.002176,-0.00011200000000000001,9.5e-05
0.0022240000000000003,-0.00011200000000000001,9.55e-05
0.0021599999999999996,-7.999999999999999e-05,9.6e-05
0.00192,-7.999999999999999e-05,9.65e-05
0.001488,-9.6e-05,9.7e-05
0.0008960000000000001,-9.6e-05,9.75e-05
0.00012799999999999997,-7.999999999999999e-05,9.8e-05
-0.000768,-3.200000000000002e-05,9.85e-05
-0.001904,-3.200000000000002e-05,9.9e-05
-0.0031999999999999997,-3.200000000000002e-05,9.95e-05
-0.004528,1.600000000000001e-05,0.0001
-0.00592,0.00012800000000000002,0.0001005
-0.007664,4.800000000000003e-05,0.000101
-0.009376,0.0,0.0001015
-0.010864,0.00022399999999999997,0.000102
-0.012512,0.00032,0.0001025
-0.01416,0.000368,0.000103
-0.015968,0.000256,0.0001035
-0.017696,0.000176,0.000104
-0.01928,0.00011199999999999996,0.0001045
-0.020704,0.0,0.000105
-0.021712,6.399999999999998e-05,0.0001055
-0.022576,9.6e-05,0.000106
-0.023152,0.00019200000000000006,0.0001065
-0.023792,6.399999999999998e-05,0.000107
-0.023968,0.000176,0.0001075
-0.023951999999999998,0.00030399999999999996,0.000108
-0.023968,0.00022399999999999997,0.0001085
-0.023776,0.00019200000000000006,0.000109
-0.02344,0.00019200000000000006,0.0001095
-0.023024,0.00020800000000000001,0.00011
-0.022496,0.00027200000000000005,0.0001105
-0.021984,0.000256,0.000111
-0.021456,0.00019200000000000006,0.0001115
-0.020895999999999998,0.00012800000000000002,0.000112
-0.020224,0.00011199999999999996,0.0001125
-0.019552,0.00011199999999999996,0.000113
-0.018928,4.800000000000003e-05,0.0001135
-0.018416,-3.200000000000002e-05,0.000114
-0.017856,1.600000000000001e-05,0.0001145
-0.017376,0.00011199999999999996,0.000115
-0.017248,0.0,0.0001155
-0.017103999999999998,0.0,0.000116
-0.01688,0.00019200000000000006,0.0001165
-0.016928,0.00024000000000000003,0.000117
-0.017248,0.00016000000000000004,0.0001175
-0.017599999999999998,9.6e-05,0.000118
-0.017872,0.00020800000000000001,0.0001185
-0.01824,0.00030399999999999996,0.000119
-0.018816,0.00024000000000000003,0.0001195
-0.019455999999999998,0.00014399999999999998,0.00012
-0.019984,3.200000000000002e-05,0.0001205
-0.020336,9.6e-05,0.000121
-0.020928,0.0,0.0001215
-0.020992,0.00014399999999999998,0.000122
-0.021168,0.00019200000000000006,0.0001225
-0.021376,8.000000000000005e-05,0.000123
-0.021344,0.0,0.0001235
-0.021103999999999998,0.0,0.000124
-0.020704,3.200000000000002e-05,0.0001245
-0.020144,0.00011199999999999996,0.000125
-0.0196,0.00012800000000000002,0.0001255
-0.019056,9.6e-05,0.000126
-0.01848,9.6e-05,0.0001265
-0.017936,0.00014399999999999998,0.000127
-0.017424,0.000176,0.0001275
-0.017183999999999998,0.000176,0.000128
-0.017055999999999998,0.00014399999999999998,0.0001285
-0.016992,0.000176,0.000129
-0.017088,0.00022399999999999997,0.0001295
-0.017551999999999998,4.800000000000003e-05,0.00013
-0.01792,3.200000000000002e-05,0.0001305
-0.018208,0.00014399999999999998,0.000131
-0.018608,0.00016000000000000004,0.0001315
-0.019247999999999998,1.600000000000001e-05,0.000132
-0.01976,-7.999999999999999e-05,0.0001325
-0.019984,4.800000000000003e-05,0.000133
-0.020159999999999997,0.00014399999999999998,0.0001335
-0.020432,8.000000000000005e-05,0.000134
-0.020527999999999998,1.600000000000001e-05,0.0001345
-0.020479999999999998,-3.200000000000002e-05,0.000135
-0.020096,6.399999999999998e-05,0.0001355
-0.019823999999999998,-1.600000000000001e-05,0.000136
-0.019087999999999997,0.00020800000000000001,0.0001365
-0.018656,0.00027200000000000005,0.000137
-0.018416,0.00016000000000000004,0.0001375
-0.018064,9.6e-05,0.000138
-0.017839999999999998,0.00011199999999999996,0.0001385
-0.017696,0.00014399999999999998,0.000139
-0.017648,0.00014399999999999998,0.0001395
-0.017616,0.00014399999999999998,0.00014
-0.017776,0.00011199999999999996,0.0001405
-0.018144,9.6e-05,0.000141
-0.018496,0.00011199999999999996,0.0001415
-0.019008,0.00011199999999999996,0.000142
-0.019776,6.399999999999998e-05,0.0001425
-0.020239999999999998,4.800000000000003e-05,0.000143
-0.020367999999999997,0.00011199999999999996,0.0001435
-0.020432,0.00011199999999999996,0.000144
-0.020576,-4.7999999999999974e-05,0.0001445
-0.020304,-3.200000000000002e-05,0.000145
-0.019936,0.00014399999999999998,0.0001455
-0.019936,0.00016000000000000004,0.000146
-0.020016,6.399999999999998e-05,0.0001465
-0.019823999999999998,0.0,0.000147
-0.019392,0.00012800000000000002,0.0001475
-0.018911999999999998,0.00020800000000000001,0.000148
-0.018416,0.00016000000000000004,0.0001485
-0.017984,0.00012800000000000002,0.000149
-0.018015999999999997,6.399999999999998e-05,0.0001495
-0.018255999999999998,0.00011199999999999996,0.00015
-0.018911999999999998,0.0,0.0001505
-0.0192,0.00020800000000000001,0.000151
-0.019472,0.000336,0.0001515
-0.019712,0.00020800000000000001,0.000152
-0.019871999999999997,9.6e-05,0.0001525
-0.020048,8.000000000000005e-05,0.000153
-0.020191999999999998,0.00011199999999999996,0.0001535
-0.020352,0.00012800000000000002,0.000154
-0.020592,0.00012800000000000002,0.0001545
-0.020832,8.000000000000005e-05,0.000155
-0.020672,4.800000000000003e-05,0.0001555
-0.02,9.6e-05,0.000156
-0.019264,9.6e-05,0.0001565
-0.018768,6.399999999999998e-05,0.000157
-0.018623999999999998,6.399999999999998e-05,0.0001575
-0.018671999999999998,0.00014399999999999998,0.000158
-0.018704,0.00016000000000000004,0.0001585
-0.018911999999999998,3.200000000000002e-05,0.000159
-0.019072,3.200000000000002e-05,0.0001595
-0.019136,0.00022399999999999997,0.00016
-0.0192,0.00024000000000000003,0.0001605
-0.01928,0.000176,0.000161
-0.019552,8.000000000000005e-05,0.0001615
-0.01984,0.000176,0.000162
-0.020256,0.000256,0.0001625
-0.020672,0.000176,0.000163
-0.020512,0.000176,0.0001635
-0.020384,8.000000000000005e-05,0.000164
-0.020304,8.000000000000005e-05,0.0001645
-0.020432,-3.200000000000002e-05,0.000165
-0.01984,0.00016000000000000004,0.0001655
-0.019152,0.000288,0.000166
-0.018879999999999997,0.00012800000000000002,0.0001665
-0.018928,3.200000000000002e-05,0.000167
-0.019104,1.600000000000001e-05,0.0001675
-0.019184,8.000000000000005e-05,0.000168
-0.019119999999999998,0.00011199999999999996,0.0001685
-0.019167999999999998,0.00012800000000000002,0.000169
-0.019504,9.6e-05,0.0001695
-0.019648,0.00012800000000000002,0.00017
-0.01952,0.000176,0.0001705
-0.019552,0.000176,0.000171
-0.019888,0.00014399999999999998,0.0001715
-0.020336,0.00016000000000000004,0.000172
-0.02064,0.00019200000000000006,0.0001725
-0.020607999999999998,0.000176,0.000173
-0.020352,4.800000000000003e-05,0.0001735
-0.01984,8.000000000000005e-05,0.000174
-0.019296,0.00022399999999999997,0.0001745
-0.019056,0.00019200000000000006,0.000175
-0.019152,6.399999999999998e-05,0.0001755
-0.019312,1.600000000000001e-05,0.000176
-0.0192,0.00014399999999999998,0.0001765
-0.019167999999999998,0.00016000000000000004,0.000177
-0.019216,9.6e-05,0.0001775
-0.01928,0.00011199999999999996,0.000178
-0.019488,1.600000000000001e-05,0.0001785
-0.01952,6.399999999999998e-05,0.000179
-0.019792,-3.200000000000002e-05,0.0001795
-0.019776,0.00020800000000000001,0.00018
-0.020111999999999998,0.00030399999999999996,0.0001805
-0.020496,0.00014399999999999998,0.000181
-0.020416,4.800000000000003e-05,0.0001815
-0.020111999999999998,8.000000000000005e-05,0.000182
-0.019936,0.00011199999999999996,0.0001825
-0.019712,0.00012800000000000002,0.000183
-0.019327999999999998,9.6e-05,0.0001835
-0.018799999999999997,8.000000000000005e-05,0.000184
-0.018335999999999998,9.6e-05,0.0001845
-0.018175999999999998,0.00012800000000000002,0.000185
-0.018352,0.00011199999999999996,0.0001855
-0.018608,8.000000000000005e-05,0.000186
-0.018768,0.00011199999999999996,0.0001865
-0.018944,0.00016000000000000004,0.000187
-0.019039999999999998,0.00014399999999999998,0.0001875
-0.019152,4.800000000000003e-05,0.000188
-0.019264,9.6e-05,0.0001885
-0.019488,0.00022399999999999997,0.000189
-0.01984,0.000176,0.0001895
-0.019984,9.6e-05,0.00019
-0.019888,8.000000000000005e-05,0.0001905
-0.0196,0.00016000000000000004,0.000191
-0.019296,0.00014399999999999998,0.0001915
-0.018848,0.00011199999999999996,0.000192
-0.01824,0.00012800000000000002,0.0001925
-0.017952,3.200000000000002e-05,0.000193
-0.017759999999999998,4.800000000000003e-05,0.0001935
-0.017632,0.0,0.000194
-0.016975999999999998,0.00030399999999999996,0.0001945
-0.016864,0.00030399999999999996,0.000195
-0.01704,0.00016000000000000004,0.0001955
-0.017183999999999998,0.00012800000000000002,0.000196
-0.017152,0.00019200000000000006,0.0001965
-0.016864,0.00020800000000000001,0.000197
-0.016144,0.00020800000000000001,0.0001975
-0.015264000000000002,0.000176,0.000198
-0.014352,0.00014399999999999998,0.0001985
-0.013744000000000001,0.00014399999999999998,0.000199
-0.013552,0.00014399999999999998,0.0001995
-0.013536000000000001,0.00012800000000000002,0.0002
-0.013040000000000001,0.00011199999999999996,0.0002005
-0.012032000000000001,0.00012800000000000002,0.000201
-0.010832000000000001,0.00012800000000000002,0.0002015
-0.009744000000000001,6.399999999999998e-05,0.000202
-0.008944,-3.200000000000002e-05,0.0002025
-0.008144,9.6e-05,0.000203
-0.0076,0.000176,0.0002035
-0.0072,0.00016000000000000004,0.000204
-0.006719999999999999,6.399999999999998e-05,0.0002045
-0.006064,8.000000000000005e-05,0.000205
-0.005392,0.000176,0.0002055
-0.004928,0.00019200000000000006,0.000206
-0.0043679999999999995,0.00016000000000000004,0.0002065
-0.0036160000000000003,0.00011199999999999996,0.000207
-0.0027679999999999996,6.399999999999998e-05,0.0002075
-0.001968,6.399999999999998e-05,0.000208
-0.0013440000000000001,0.0,0.0002085
-0.00024,0.000256,0.000209
0.00039999999999999996,0.00019200000000000006,0.0002095
0.0007199999999999999,3.200000000000002e-05,0.00021
0.0008960000000000001,0.0,0.0002105
0.00112,3.200000000000002e-05,0.000211
0.001328,8.000000000000005e-05,0.0002115
0.00136,0.00011199999999999996,0.000212
0.001216,6.399999999999998e-05,0.0002125
0.001072,4.800000000000003e-05,0.000213
0.0009760000000000001,8.000000000000005e-05,0.0002135
0.000688,9.6e-05,0.000214
9.6e-05,8.000000000000005e-05,0.0002145
-0.000496,9.6e-05,0.000215
-0.000768,0.00014399999999999998,0.0002155
-0.0007999999999999999,0.00014399999999999998,0.000216
-0.0007999999999999999,3.200000000000002e-05,0.0002165
-0.0007199999999999999,-3.200000000000002e-05,0.000217
-0.000272,0.00011199999999999996,0.0002175
-7.999999999999999e-05,0.00016000000000000004,0.000218
-0.00016,8.000000000000005e-05,0.0002185
-0.000512,0.0,0.000219
-0.000896,3.200000000000002e-05,0.0002195
-0.001232,0.00011199999999999996,0.00022
-0.001456,0.00012800000000000002,0.0002205
-0.001552,0.00012800000000000002,0.000221
-0.001728,3.200000000000002e-05,0.0002215
-0.001808,0.0,0.000222
-0.001872,-1.600000000000001e-05,0.0002225
-0.001792,4.800000000000003e-05,0.000223
-0.001632,0.000256,0.0002235
-0.001744,0.00014399999999999998,0.000224
-0.001712,1.600000000000001e-05,0.0002245
-0.001328,-1.600000000000001e-05,0.000225
-0.000976,0.0,0.0002255
-0.0006720000000000001,3.200000000000002e-05,0.000226
-0.0004,4.800000000000003e-05,0.0002265
-0.00020800000000000001,3.200000000000002e-05,0.000227
-1.600000000000001e-05,6.399999999999998e-05,0.0002275
0.00012799999999999997,9.6e-05,0.000228
0.00011200000000000001,0.00011199999999999996,0.0002285
-0.00016,9.6e-05,0.000229
-0.000464,0.00011199999999999996,0.0002295
-0.000864,0.000176,0.00023
-0.001216,0.00019200000000000006,0.0002305
-0.00152,9.6e-05,0.000231
-0.001568,6.399999999999998e-05,0.0002315
-0.001248,0.00020800000000000001,0.000232
-0.001072,0.00019200000000000006,0.0002325
-0.000944,6.399999999999998e-05,0.000233
-0.000896,-1.600000000000001e-05,0.0002335
-0.000784,6.399999999999998e-05,0.000234
-0.0007999999999999999,9.6e-05,0.0002345
-0.001008,8.000000000000005e-05,0.000235
-0.001168,0.00012800000000000002,0.0002355
-0.00136,3.200000000000002e-05,0.000236
-0.0013440000000000001,1.600000000000001e-05,0.0002365
-0.001264,1.600000000000001e-05,0.000237
-0.001056,0.00014399999999999998,0.0002375
-0.000864,0.00032,0.000238
-0.001152,0.00019200000000000006,0.0002385
-0.0013440000000000001,0.00012800000000000002,0.000239
-0.001456,0.00011199999999999996,0.0002395
-0.001456,0.00014399999999999998,0.00024
-0.0012799999999999999,0.00019200000000000006,0.0002405
-0.0010400000000000001,0.000176,0.000241
-0.0007520000000000001,0.00012800000000000002,0.0002415
-0.00048,0.00011199999999999996,0.000242
-0.00024,0.00014399999999999998,0.0002425
-0.00016,0.00011199999999999996,0.000243
-0.000272,9.6e-05,0.0002435
-0.000576,0.00012800000000000002,0.000244
-0.000864,0.000176,0.0002445
-0.001168,0.00016000000000000004,0.000245
-0.00152,4.800000000000003e-05,0.0002455
-0.001616,6.399999999999998e-05,0.000246
-0.00136,0.00020800000000000001,0.0002465
-0.001296,0.000176,0.000247
-0.001312,8.000000000000005e-05,0.0002475
-0.001296,4.800000000000003e-05,0.000248
-0.001232,0.00011199999999999996,0.0002485
-0.001104,0.00014399999999999998,0.000249
-0.00096,9.6e-05,0.0002495
-0.000736,0.00012800000000000002,0.00025
-0.0006720000000000001,1.600000000000001e-05,0.0002505
-0.00048,1.600000000000001e-05,0.000251
-0.00041600000000000003,-3.200000000000002e-05,0.0002515
-1.600000000000001e-05,0.00020800000000000001,0.000252
7.999999999999999e-05,0.00030399999999999996,0.0002525
-4.800000000000003e-05,0.00016000000000000004,0.000253
-9.6e-05,8.000000000000005e-05,0.0002535
-0.000144,9.6e-05,0.000254
-0.000272,9.6e-05,0.0002545
-0.000368,0.00011199999999999996,0.000255
-0.00041600000000000003,0.00011199999999999996,0.0002555
-0.00048,9.6e-05,0.000256
-0.000528,8.000000000000005e-05,0.0002565
-0.000496,9.6e-05,0.000257
-0.000496,8.000000000000005e-05,0.0002575
-0.000448,4.800000000000003e-05,0.000258
-0.000384,8.000000000000005e-05,0.0002585
-0.000432,0.00012800000000000002,0.000259
-0.000608,0.00012800000000000002,0.0002595
-0.00088,-3.200000000000002e-05,0.00026
-0.0008320000000000001,6.399999999999998e-05,0.0002605
-0.000704,0.00019200000000000006,0.000261
-0.000608,0.00016000000000000004,0.0002615
-0.000496,6.399999999999998e-05,0.000262
-0.000272,3.200000000000002e-05,0.0002625
0.0,0.00011199999999999996,0.000263
6.399999999999998e-05,0.00012800000000000002,0.0002635
-4.800000000000003e-05,8.000000000000005e-05,0.000264
-6.399999999999998e-05,9.6e-05,0.0002645
-0.000192,-1.600000000000001e-05,0.000265
-0.000192,1.600000000000001e-05,0.0002655
-0.000352,-4.7999999999999974e-05,0.000266
-0.00012800000000000002,0.00020800000000000001,0.0002665
-0.00012800000000000002,0.000256,0.000267
-0.000448,9.6e-05,0.0002675
-0.000656,3.200000000000002e-05,0.000268
-0.000736,6.399999999999998e-05,0.0002685
-0.0007520000000000001,0.00011199999999999996,0.000269
-0.000848,9.6e-05,0.0002695
-0.0010240000000000002,8.000000000000005e-05,0.00027
-0.0010240000000000002,0.00011199999999999996,0.0002705
-0.0010240000000000002,0.00011199999999999996,0.000271
-0.000896,8.000000000000005e-05,0.0002715
-0.000576,4.800000000000003e-05,0.000272
-0.00025600000000000004,4.800000000000003e-05,0.0002725
-4.800000000000003e-05,4.800000000000003e-05,0.000273
7.999999999999999e-05,4.800000000000003e-05,0.0002735
0.00012799999999999997,4.800000000000003e-05,0.000274
-6.399999999999998e-05,-1.600000000000001e-05,0.0002745
-0.000272,0.0,0.000275
-0.000384,0.00011199999999999996,0.0002755
-0.000544,0.00014399999999999998,0.000276
-0.000784,8.000000000000005e-05,0.0002765
-0.000912,-3.200000000000002e-05,0.000277
-0.0007520000000000001,4.800000000000003e-05,0.0002775
-0.000528,0.00016000000000000004,0.000278
-0.00056,0.00014399999999999998,0.0002785
-0.0007199999999999999,3.200000000000002e-05,0.000279
-0.00096,-3.200000000000002e-05,0.0002795
-0.0011359999999999999,4.800000000000003e-05,0.00028
-0.0013440000000000001,-1.600000000000001e-05,0.0002805
-0.0010240000000000002,0.00022399999999999997,0.000281
-0.0008320000000000001,0.00020800000000000001,0.0002815
-0.0006399999999999999,8.000000000000005e-05,0.000282
-0.000368,3.200000000000002e-05,0.0002825
-0.00017600000000000002,3.200000000000002e-05,0.000283
-0.00017600000000000002,6.399999999999998e-05,0.0002835
-0.00025600000000000004,9.6e-05,0.000284
-0.0004,9.6e-05,0.0002845
-0.000624,9.6e-05,0.000285
-0.0006399999999999999,8.000000000000005e-05,0.0002855
-0.00056,8.000000000000005e-05,0.000286
-0.000432,9.6e-05,0.0002865
-0.00033600000000000004,8.000000000000005e-05,0.000287
-0.0004,6.399999999999998e-05,0.0002875
-0.000496,0.00011199999999999996,0.000288
-0.0007520000000000001,0.00011199999999999996,0.0002885
-0.0010400000000000001,1.600000000000001e-05,0.000289
-0.00096,8.000000000000005e-05,0.0002895
-0.0007520000000000001,0.00020800000000000001,0.00029
-0.0006720000000000001,0.00014399999999999998,0.0002905
-0.000544,3.200000000000002e-05,0.000291
-0.000352,0.0,0.0002915
-6.399999999999998e-05,0.00014399999999999998,0.000292
0.0,0.00014399999999999998,0.0002925
-4.800000000000003e-05,9.6e-05,0.000293
-9.6e-05,3.200000000000002e-05,0.0002935
-0.00011200000000000001,0.0,0.000294
-0.000144,4.800000000000003e-05,0.0002945
-0.000224,0.0,0.000295
4.7999999999999974e-05,0.00024000000000000003,0.0002955
-0.00011200000000000001,0.00016000000000000004,0.000296
-0.000384,6.399999999999998e-05,0.0002965
-0.000704,1.600000000000001e-05,0.000297
-0.00088,6.399999999999998e-05,0.0002975
-0.0008320000000000001,0.00012800000000000002,0.000298
-0.000704,0.00014399999999999998,0.0002985
-0.000592,8.000000000000005e-05,0.000299
-0.00033600000000000004,9.6e-05,0.0002995
-9.6e-05,0.00012800000000000002,0.0003
-4.800000000000003e-05,0.00011199999999999996,0.0003005
-0.00011200000000000001,6.399999999999998e-05,0.000301
-0.00012800000000000002,9.6e-05,0.0003015
-6.399999999999998e-05,0.00012800000000000002,0.000302
3.1999999999999965e-05,0.00014399999999999998,0.0003025
6.399999999999998e-05,3.200000000000002e-05,0.000303
0.00011200000000000001,1.600000000000001e-05,0.0003035
0.00023999999999999998,0.00016000000000000004,0.000304
0.00020799999999999996,0.00014399999999999998,0.0003045
0.00011200000000000001,9.6e-05,0.000305
-0.000144,1.600000000000001e-05,0.0003055
-0.000288,3.200000000000002e-05,0.000306
-0.00024,0.00014399999999999998,0.0003065
-0.00011200000000000001,0.00016000000000000004,0.000307
0.00012799999999999997,0.00011199999999999996,0.0003075
0.00022400000000000002,-3.200000000000002e-05,0.000308
0.00056,-1.600000000000001e-05,0.0003085
0.0007359999999999999,-4.7999999999999974e-05,0.000309
0.001072,8.000000000000005e-05,0.0003095
0.001248,0.00020800000000000001,0.00031
0.000992,9.6e-05,0.0003105
0.000688,3.200000000000002e-05,0.000311
0.00056,3.200000000000002e-05,0.0003115
0.000544,9.6e-05,0.000312
0.000512,0.00012800000000000002,0.0003125
0.00047999999999999996,0.00012800000000000002,0.000313
0.00047999999999999996,6.399999999999998e-05,0.0003135
0.000464,9.6e-05,0.000314
0.00031999999999999997,0.00014399999999999998,0.0003145
3.1999999999999965e-05,0.00011199999999999996,0.000315
-0.00020800000000000001,6.399999999999998e-05,0.0003155
-0.000224,6.399999999999998e-05,0.000316
-9.6e-05,0.00012800000000000002,0.0003165
-4.800000000000003e-05,0.00011199999999999996,0.000317
-9.6e-05,-6.399999999999998e-05,0.0003175
0.00023999999999999998,3.200000000000002e-05,0.000318
0.00047999999999999996,0.00016000000000000004,0.0003185
0.00041600000000000003,0.00011199999999999996,0.000319
0.00020799999999999996,1.600000000000001e-05,0.0003195
6.399999999999998e-05,0.0,0.00032
7.999999999999999e-05,9.6e-05,0.0003205
1.600000000000001e-05,0.00014399999999999998,0.000321
-9.6e-05,0.00011199999999999996,0.0003215
-0.00016,8.000000000000005e-05,0.000322
-0.000224,-1.600000000000001e-05,0.0003225
-6.399999999999998e-05,1.600000000000001e-05,0.000323
-0.000144,-3.200000000000002e-05,0.0003235
9.6e-05,0.00024000000000000003,0.000324
-6.399999999999998e-05,0.00019200000000000006,0.0003245
-0.00033600000000000004,4.800000000000003e-05,0.000325
-0.0004,0.0,0.0003255
-0.00032,3.200000000000002e-05,0.000326
-0.00012800000000000002,6.399999999999998e-05,0.0003265
6.399999999999998e-05,4.800000000000003e-05,0.000327
0.000304,4.800000000000003e-05,0.0003275
0.00044799999999999994,4.800000000000003e-05,0.000328
0.000512,4.800000000000003e-05,0.0003285
0.000528,6.399999999999998e-05,0.000329
0.000496,8.000000000000005e-05,0.0003295
0.000464,8.000000000000005e-05,0.00033
0.00041600000000000003,8.000000000000005e-05,0.0003305
0.00033600000000000004,0.00011199999999999996,0.000331
0.000192,4.800000000000003e-05,0.0003315
7.999999999999999e-05,-3.200000000000002e-05,0.000332
0.000192,0.00012800000000000002,0.0003325
0.00017599999999999994,0.000176,0.000333
4.7999999999999974e-05,8.000000000000005e-05,0.0003335
-1.600000000000001e-05,0.0,0.000334
0.00015999999999999999,8.000000000000005e-05,0.0003345
0.00036799999999999995,0.00014399999999999998,0.000335
0.00041600000000000003,9.6e-05,0.0003355
0.000576,9.6e-05,0.000336
0.000608,0.0,0.0003365
0.0006720000000000001,-1.600000000000001e-05,0.000337
0.000528,-9.6e-05,0.0003375
0.00047999999999999996,4.800000000000003e-05,0.000338
0.000528,0.00024000000000000003,0.0003385
0.00017599999999999994,0.00012800000000000002,0.000339
-0.00011200000000000001,1.600000000000001e-05,0.0003395
-0.000192,1.600000000000001e-05,0.00034
-0.00017600000000000002,9.6e-05,0.0003405
-0.00011200000000000001,0.00011199999999999996,0.000341
-4.800000000000003e-05,9.6e-05,0.0003415
-4.800000000000003e-05,6.399999999999998e-05,0.000342
-1.600000000000001e-05,8.000000000000005e-05,0.0003425
0.00012799999999999997,8.000000000000005e-05,0.000343
0.000192,6.399999999999998e-05,0.0003435
0.00031999999999999997,6.399999999999998e-05,0.000344
0.000496,0.00012800000000000002,0.0003445
0.000624,0.00011199999999999996,0.000345
0.000704,8.000000000000005e-05,0.0003455
0.0006720000000000001,0.0,0.000346
0.000608,3.200000000000002e-05,0.0003465
0.000544,0.00012800000000000002,0.000347
0.00031999999999999997,0.00011199999999999996,0.0003475
3.1999999999999965e-05,8.000000000000005e-05,0.000348
-0.00025600000000000004,0.0,0.0003485
-0.00024,8.000000000000005e-05,0.000349
-4.800000000000003e-05,0.00014399999999999998,0.0003495
0.00015999999999999999,0.00011199999999999996,0.00035
0.00033600000000000004,4.800000000000003e-05,0.0003505
0.00041600000000000003,-3.200000000000002e-05,0.000351
0.000512,0.0,0.0003515
0.00028799999999999995,-3.200000000000002e-05,0.000352
0.000352,0.00024000000000000003,0.0003525
0.00014400000000000003,0.00022399999999999997,0.000353
-7.999999999999999e-05,9.6e-05,0.0003535
-6.399999999999998e-05,6.399999999999998e-05,0.000354
0.00011200000000000001,8.000000000000005e-05,0.0003545
0.00031999999999999997,0.00011199999999999996,0.000355
0.000432,0.00011199999999999996,0.0003555
0.000432,9.6e-05,0.000356
0.00039999999999999996,9.6e-05,0.0003565
0.000304,0.00011199999999999996,0.000357
9.6e-05,8.000000000000005e-05,0.0003575
1.600000000000001e-05,8.000000000000005e-05,0.000358
7.999999999999999e-05,0.00012800000000000002,0.0003585
0.000192,0.00014399999999999998,0.000359
0.00036799999999999995,0.00011199999999999996,0.0003595
0.00044799999999999994,3.200000000000002e-05,0.00036
0.00047999999999999996,1.600000000000001e-05,0.0003605
0.000528,0.00016000000000000004,0.000361
0.000272,0.00016000000000000004,0.0003615
-3.200000000000002e-05,9.6e-05,0.000362
-0.000288,4.800000000000003e-05,0.0003625
-0.00032,9.6e-05,0.000363
-0.00024,0.00012800000000000002,0.0003635
-0.00012800000000000002,0.00011199999999999996,0.000364
0.00022400000000000002,0.00014399999999999998,0.0003645
0.000352,3.200000000000002e-05,0.000365
0.00039999999999999996,-1.600000000000001e-05,0.0003655
0.000352,-4.7999999999999974e-05,0.000366
0.000496,0.00014399999999999998,0.0003665
0.00044799999999999994,0.000256,0.000367
0.00011200000000000001,9.6e-05,0.0003675
0.0,4.800000000000003e-05,0.000368
4.7999999999999974e-05,6.399999999999998e-05,0.0003685
0.00014400000000000003,8.000000000000005e-05,0.000369
0.000272,8.000000000000005e-05,0.0003695
0.000432,9.6e-05,0.00037
0.000512,9.6e-05,0.0003705
0.000496,9.6e-05,0.000371
0.00041600000000000003,6.399999999999998e-05,0.0003715
0.000352,9.6e-05,0.000372
0.00023999999999999998,9.6e-05,0.0003725
3.1999999999999965e-05,9.6e-05,0.000373
-4.800000000000003e-05,8.000000000000005e-05,0.0003735
-1.600000000000001e-05,9.6e-05,0.000374
-1.600000000000001e-05,1.600000000000001e-05,0.0003745
0.000192,6.399999999999998e-05,0.000375
0.00039999999999999996,0.00014399999999999998,0.0003755
0.000432,0.00016000000000000004,0.000376
0.000352,4.800000000000003e-05,0.0003765
0.000304,1.600000000000001e-05,0.000377
0.00033600000000000004,8.000000000000005e-05,0.0003775
0.00039999999999999996,0.00011199999999999996,0.000378
0.000496,0.00011199999999999996,0.0003785
0.000544,3.200000000000002e-05,0.000379
0.000464,-7.999999999999999e-05,0.0003795
0.00056,-1.600000000000001e-05,0.00038
0.000496,1.600000000000001e-05,0.0003805
0.000592,0.000256,0.000381
0.00017599999999999994,0.00019200000000000006,0.0003815
-0.00012800000000000002,9.6e-05,0.000382
-0.00020800000000000001,6.399999999999998e-05,0.0003825
-0.000144,8.000000000000005e-05,0.000383
0.0,4.800000000000003e-05,0.0003835
0.00023999999999999998,9.6e-05,0.000384
0.000432,9.6e-05,0.0003845
0.000512,6.399999999999998e-05,0.000385
0.000528,3.200000000000002e-05,0.0003855
0.000528,8.000000000000005e-05,0.000386
0.000464,0.00011199999999999996,0.0003865
0.00028799999999999995,0.00011199999999999996,0.000387
0.00014400000000000003,4.800000000000003e-05,0.0003875
0.00023999999999999998,0.00012800000000000002,0.000388
0.000192,0.00011199999999999996,0.0003885
4.7999999999999974e-05,-1.600000000000001e-05,0.000389
0.00017599999999999994,6.399999999999998e-05,0.0003895
0.00022400000000000002,0.00014399999999999998,0.00039
0.00014400000000000003,0.00016000000000000004,0.0003905
-4.800000000000003e-05,3.200000000000002e-05,0.000391
-7.999999999999999e-05,1.600000000000001e-05,0.0003915
0.00014400000000000003,0.00016000000000000004,0.000392
0.00028799999999999995,0.00020800000000000001,0.0003925
0.000384,0.00014399999999999998,0.000393
0.000304,-3.200000000000002e-05,0.0003935
0.00031999999999999997,-1.600000000000001e-05,0.000394
0.00022400000000000002,3.200000000000002e-05,0.0003945
0.00012799999999999997,9.6e-05,0.000395
0.00015999999999999999,0.00024000000000000003,0.0003955
-1.600000000000001e-05,0.00014399999999999998,0.000396
-3.200000000000002e-05,6.399999999999998e-05,0.0003965
9.6e-05,3.200000000000002e-05,0.000397
0.00031999999999999997,4.800000000000003e-05,0.0003975
0.000512,6.399999999999998e-05,0.000398
0.000624,6.399999999999998e-05,0.0003985
0.000528,3.200000000000002e-05,0.000399
0.000384,3.200000000000002e-05,0.0003995
0.00020799999999999996,6.399999999999998e-05,0.0004
0.0,6.399999999999998e-05,0.0004005
-6.399999999999998e-05,6.399999999999998e-05,0.000401
0.0,9.6e-05,0.0004015
0.00017599999999999994,0.00016000000000000004,0.000402
0.00028799999999999995,0.00016000000000000004,0.0004025
0.00023999999999999998,4.800000000000003e-05,0.000403
0.00031999999999999997,8.000000000000005e-05,0.0004035
0.000432,0.00019200000000000006,0.000404
0.000304,0.000176,0.0004045
0.00017599999999999994,0.00012800000000000002,0.000405
3.1999999999999965e-05,3.200000000000002e-05,0.0004055
0.00011200000000000001,6.399999999999998e-05,0.000406
0.00023999999999999998,0.00012800000000000002,0.0004065
0.00033600000000000004,0.00011199999999999996,0.000407
0.000464,4.800000000000003e-05,0.0004075
0.00047999999999999996,-0.00012799999999999997,0.000408
0.0006559999999999999,-9.6e-05,0.0004085
0.00056,-0.00015999999999999999,0.000409
0.000704,1.600000000000001e-05,0.0004095
0.000512,-1.600000000000001e-05,0.00041
0.00022400000000000002,-0.000192,0.0004105
0.00014400000000000003,-0.000256,0.000411
0.00014400000000000003,-0.000304,0.0004115
0.00017599999999999994,-0.00039999999999999996,0.000412
0.00023999999999999998,-0.000496,0.0004125
0.00028799999999999995,-0.000624,0.000413
0.000304,-0.0007520000000000001,0.0004135
0.00028799999999999995,-0.000896,0.000414
0.00020799999999999996,-0.00112,0.0004145
0.00017599999999999994,-0.001376,0.000415
0.00022400000000000002,-0.001568,0.0004155
0.000272,-0.0018080000000000001,0.000416
0.000352,-0.0020959999999999998,0.0004165
0.00041600000000000003,-0.002448,0.000417
0.00036799999999999995,-0.002848,0.0004175
0.00044799999999999994,-0.003088,0.000418
0.00041600000000000003,-0.00336,0.0004185
0.00022400000000000002,-0.00376,0.000419
1.600000000000001e-05,-0.004176,0.0004195
-9.6e-05,-0.0045119999999999995,0.00042
0.0,-0.004751999999999999,0.0004205
7.999999999999999e-05,-0.005071999999999999,0.000421
0.000272,-0.005327999999999999,0.0004215
0.00039999999999999996,-0.005632,0.000422
0.00036799999999999995,-0.005984,0.0004225
0.00039999999999999996,-0.006111999999999999,0.000423
0.00023999999999999998,-0.006336,0.0004235
0.00041600000000000003,-0.006192,0.000424
0.00020799999999999996,-0.006352,0.0004245
-3.200000000000002e-05,-0.0065439999999999995,0.000425
-3.200000000000002e-05,-0.006607999999999999,0.0004255
0.00014400000000000003,-0.006575999999999999,0.000426
0.000304,-0.006592,0.0004265
0.000432,-0.0065439999999999995,0.000427
0.000528,-0.00648,0.0004275
0.000528,-0.006431999999999999,0.000428
0.00036799999999999995,-0.006431999999999999,0.0004285
0.000304,-0.006352,0.000429
0.00028799999999999995,-0.006287999999999999,0.0004295
0.00017599999999999994,-0.006304,0.00043
0.00012799999999999997,-0.006336,0.0004305
0.00022400000000000002,-0.006336,0.000431
0.00041600000000000003,-0.006352,0.0004315
0.00039999999999999996,-0.0065119999999999996,0.000432
0.00047999999999999996,-0.00656,0.0004325
0.000576,-0.0065119999999999996,0.000433
0.00056,-0.00656,0.0004335
0.000304,-0.0068,0.000434
0.00015999999999999999,-0.0069759999999999996,0.0004345
0.000272,-0.006944,0.000435
0.000352,-0.006927999999999999,0.0004355
0.000352,-0.007039999999999999,0.000436
0.00031999999999999997,-0.0072,0.0004365
0.00031999999999999997,-0.007312,0.000437
0.00041600000000000003,-0.007247999999999999,0.0004375
0.00022400000000000002,-0.0073279999999999994,0.000438
0.00033600000000000004,-0.007056,0.0004385
0.00022400000000000002,-0.007039999999999999,0.000439
9.6e-05,-0.0071519999999999995,0.0004395
6.399999999999998e-05,-0.0072,0.00044
0.000192,-0.0071519999999999995,0.0004405
0.00036799999999999995,-0.007103999999999999,0.000441
0.000432,-0.007103999999999999,0.0004415
0.00044799999999999994,-0.007136,0.000442
0.00039999999999999996,-0.007168,0.0004425
0.00031999999999999997,-0.007183999999999999,0.000443
0.000192,-0.00728,0.0004435
0.00014400000000000003,-0.007359999999999999,0.000444
0.00020799999999999996,-0.007391999999999999,0.0004445
0.00020799999999999996,-0.0074719999999999995,0.000445
0.00022400000000000002,-0.007584,0.0004455
0.000272,-0.007679999999999999,0.000446
0.00031999999999999997,-0.007808,0.0004465
0.000528,-0.007824,0.000447
0.000624,-0.0077919999999999994,0.0004475
0.00056,-0.0077919999999999994,0.000448
0.00031999999999999997,-0.00784,0.0004485
7.999999999999999e-05,-0.007888000000000001,0.000449
7.999999999999999e-05,-0.007808,0.0004495
0.00015999999999999999,-0.007711999999999999,0.00045
0.00023999999999999998,-0.007696,0.0004505
0.000272,-0.007744,0.000451
0.000304,-0.00784,0.0004515
0.000528,-0.0077599999999999995,0.000452
0.00041600000000000003,-0.007808,0.0004525
0.00056,-0.0076,0.000453
0.00039999999999999996,-0.007647999999999999,0.0004535
0.00017599999999999994,-0.007824,0.000454
9.6e-05,-0.007936,0.0004545
0.00015999999999999999,-0.007952,0.000455
0.00022400000000000002,-0.007984,0.0004555
0.000192,-0.008064,0.000456
0.000192,-0.008128,0.0004565
0.00028799999999999995,-0.008128,0.000457
0.000304,-0.00816,0.0004575
0.000272,-0.008208,0.000458
0.000272,-0.008224,0.0004585
0.00036799999999999995,-0.008176,0.000459
0.00039999999999999996,-0.008176,0.0004595
0.000352,-0.008208,0.00046
0.00031999999999999997,-0.00824,0.0004605
0.00022400000000000002,-0.008304,0.000461
0.00025600000000000004,-0.008272,0.0004615
0.00028799999999999995,-0.00824,0.000462
0.00028799999999999995,-0.008288,0.0004625
0.00028799999999999995,-0.008400000000000001,0.000463
0.00025600000000000004,-0.008512,0.0004635
0.000432,-0.00848,0.000464
0.000528,-0.008464000000000001,0.0004645
0.000544,-0.008496,0.000465
0.00039999999999999996,-0.00864,0.0004655
0.000192,-0.008768,0.000466
0.00017599999999999994,-0.008688000000000001,0.0004665
-1.600000000000001e-05,-0.008736,0.000467
0.00017599999999999994,-0.008512,0.0004675
0.00015999999999999999,-0.008528,0.000468
0.00022400000000000002,-0.008608000000000001,0.0004685
0.000352,-0.00864,0.000469
0.000464,-0.008672000000000001,0.0004695
0.000544,-0.008672000000000001,0.00047
0.000576,-0.008624,0.0004705
0.00047999999999999996,-0.008656,0.000471
0.000352,-0.008736,0.0004715
0.00031999999999999997,-0.008736,0.000472
0.000272,-0.008752000000000001,0.0004725
0.00022400000000000002,-0.0088,0.000473
0.00022400000000000002,-0.008864,0.0004735
0.000352,-0.00888,0.000474
0.000496,-0.008848,0.0004745
0.000512,-0.008912,0.000475
0.00036799999999999995,-0.009008,0.0004755
0.000384,-0.008896000000000001,0.000476
0.00036799999999999995,-0.0088,0.0004765
0.00022400000000000002,-0.008816000000000001,0.000477
6.399999999999998e-05,-0.008912,0.0004775
0.00011200000000000001,-0.008944,0.000478
0.00031999999999999997,-0.008864,0.0004785
0.000496,-0.008864,0.000479
0.000608,-0.008912,0.0004795
0.00056,-0.009040000000000001,0.00048
0.00047999999999999996,-0.009136,0.0004805
0.00044799999999999994,-0.00912,0.000481
0.00022400000000000002,-0.009168,0.0004815
0.000304,-0.008976000000000001,0.000482
6.399999999999998e-05,-0.009088,0.0004825
0.0,-0.009184000000000001,0.000483
0.00011200000000000001,-0.0092,0.0004835
0.00028799999999999995,-0.0092,0.000484
0.000432,-0.0092,0.0004845
0.00056,-0.009168,0.000485
0.000576,-0.009152,0.0004855
0.00044799999999999994,-0.009184000000000001,0.000486
0.00028799999999999995,-0.0092,0.0004865
0.00017599999999999994,-0.009216,0.000487
0.00012799999999999997,-0.009232,0.0004875
0.00017599999999999994,-0.009232,0.000488
0.00031999999999999997,-0.009248000000000001,0.0004885
0.00044799999999999994,-0.009296,0.000489
0.000528,-0.009376,0.0004895
0.000528,-0.009456,0.00049
0.000624,-0.009376,0.0004905
0.000544,-0.009344,0.000491
0.000352,-0.00936,0.0004915
0.00012799999999999997,-0.00944,0.000492
4.7999999999999974e-05,-0.009424,0.0004925
7.999999999999999e-05,-0.009376,0.000493
0.00023999999999999998,-0.00936,0.0004935
0.00047999999999999996,-0.009328000000000001,0.000494
0.000496,-0.009488,0.0004945
0.000576,-0.009552,0.000495
0.0006720000000000001,-0.009552,0.0004955
0.000704,-0.009504,0.000496
0.0008159999999999999,-0.009328000000000001,0.0004965
0.000464,-0.00952,0.000497
0.000272,-0.009616000000000001,0.0004975
0.00023999999999999998,-0.009616000000000001,0.000498
0.00023999999999999998,-0.009632,0.0004985
0.000272,-0.009680000000000001,0.000499
0.00039999999999999996,-0.009648,0.0004995
0.00056,-0.009600000000000001,0.0005
0.000544,-0.009648,0.0005005
0.00056,-0.009664,0.000501
0.000624,-0.009632,0.0005015
0.000688,-0.009600000000000001,0.000502
0.000688,-0.009600000000000001,0.0005025
0.000688,-0.009632,0.000503
0.000848,-0.009600000000000001,0.0005035
0.0008799999999999999,-0.009648,0.000504
0.000864,-0.009744000000000001,0.0005045
0.001088,-0.009664,0.000505
0.001248,-0.009600000000000001,0.0005055
0.0012799999999999999,-0.009632,0.000506
0.001232,-0.009744000000000001,0.0005065
0.001344,-0.009728,0.000507
0.001616,-0.009584,0.0005075
0.00176,-0.009552,0.000508
0.001904,-0.009584,0.0005085
0.002,-0.009680000000000001,0.000509
0.002288,-0.009648,0.0005095
0.0025120000000000003,-0.009632,0.00051
0.002896,-0.009536000000000001,0.0005105
0.003392,-0.009296,0.000511
0.0035199999999999997,-0.009408,0.0005115
0.0037280000000000004,-0.009504,0.000512
0.004144,-0.009488,0.0005125
0.004544,-0.009408,0.000513
0.004896,-0.009344,0.0005135
0.0052640000000000004,-0.009328000000000001,0.000514
0.005744,-0.009264,0.0005145
0.006256,-0.009168,0.000515
0.006768000000000001,-0.00912,0.0005155
0.00736,-0.009056,0.000516
0.008048,-0.008960000000000001,0.0005165
0.008784,-0.008832000000000001,0.000517
0.009472,-0.008736,0.0005175
0.010223999999999999,-0.008576,0.000518
0.010832,-0.008496,0.0005185
0.011408,-0.008320000000000001,0.000519
0.012064,-0.008064,0.0005195
0.012672,-0.007856,0.00052
0.013264,-0.007679999999999999,0.0005205
0.013871999999999999,-0.00752,0.000521
0.014575999999999999,-0.007247999999999999,0.0005215
0.015375999999999999,-0.006927999999999999,0.000522
0.016064000000000002,-0.006639999999999999,0.0005225
0.016624,-0.0063999999999999994,0.000523
0.016976,-0.0062239999999999995,0.0005235
0.017376000000000003,-0.005823999999999999,0.000524
0.017488,-0.00552,0.0005245
0.017792000000000002,-0.0049759999999999995,0.000525
0.017920000000000002,-0.004575999999999999,0.0005255
0.01784,-0.00432,0.000526
0.017824,-0.004032,0.0005265
0.017904,-0.003664,0.000527
0.017968,-0.003296,0.0005275
0.017872000000000002,-0.002944,0.000528
0.0176,-0.00264,0.0005285
0.017168000000000003,-0.002336,0.000529
0.016624,-0.002,0.0005295
0.015888,-0.0017280000000000002,0.00053
0.01512,-0.0015040000000000001,0.0005305
0.014447999999999999,-0.0012799999999999999,0.000531
0.013807999999999999,-0.001072,0.0005315
0.013215999999999999,-0.000912,0.000532
0.012591999999999999,-0.000816,0.0005325
0.011999999999999999,-0.000816,0.000533
0.011583999999999999,-0.000688,0.0005335
0.01112,-0.00056,0.000534
0.010591999999999999,-0.000544,0.0005345
0.010015999999999999,-0.000624,0.000535
0.009519999999999999,-0.000704,0.0005355
0.009311999999999999,-0.000624,0.000536
0.0092,-0.000608,0.0005365
0.009184,-0.000704,0.000537
0.009231999999999999,-0.0008799999999999999,0.0005375
0.009455999999999999,-0.000992,0.000538
0.00992,-0.0009599999999999999,0.0005385
0.010208,-0.001088,0.000539
0.010848,-0.000912,0.0005395
0.011248,-0.0009760000000000001,0.00054
0.011663999999999999,-0.001104,0.0005405
0.012159999999999999,-0.0012,0.000541
0.012752,-0.001264,0.0005415
0.013392,-0.001264,0.000542
0.013951999999999999,-0.0012799999999999999,0.0005425
0.014367999999999999,-0.001344,0.000543
0.014672,-0.001408,0.0005435
0.014912,-0.001392,0.000544
0.01496,-0.001424,0.0005445
0.014832,-0.00152,0.000545
0.014655999999999999,-0.001552,0.0005455
0.014464,-0.001536,0.000546
0.014176,-0.001536,0.0005465
0.013616,-0.0016640000000000001,0.000547
0.013151999999999999,-0.001712,0.0005475
0.012896,-0.0015040000000000001,0.000548
0.012431999999999999,-0.001424,0.0005485
0.011871999999999999,-0.001392,0.000549
0.011312,-0.001376,0.0005495
0.011023999999999999,-0.001216,0.00055
0.010848,-0.001008,0.0005505
0.010624,-0.000912,0.000551
0.01056,-0.000784,0.0005515
0.0104,-0.0007999999999999999,0.000552
0.010464,-0.000736,0.0005525
0.010496,-0.000736,0.000553
0.010863999999999999,-0.000512,0.0005535
0.011295999999999999,-0.000352,0.000554
0.011488,-0.000544,0.0005545
0.011807999999999999,-0.000688,0.000555
0.012192,-0.000784,0.0005555
0.012544,-0.000864,0.000556
0.012735999999999999,-0.001024,0.0005565
0.012943999999999999,-0.001136,0.000557
0.013007999999999999,-0.001264,0.0005575
0.01304,-0.001344,0.000558
0.013007999999999999,-0.00144,0.0005585
0.012976,-0.001456,0.000559
0.012927999999999999,-0.001456,0.0005595
0.012783999999999998,-0.001456,0.00056
0.01264,-0.001392,0.0005605
0.012496,-0.001296,0.000561
0.012159999999999999,-0.001296,0.0005615
0.011904,-0.0012,0.000562
0.011744,-0.000992,0.0005625
0.011488,-0.000848,0.000563
0.01112,-0.0008320000000000001,0.0005635
0.010784,-0.000864,0.000564
0.010735999999999999,-0.000736,0.0005645
0.010784,-0.000592,0.000565
0.010816,-0.000608,0.0005655
0.010927999999999998,-0.000672,0.000566
0.010976,-0.0008320000000000001,0.0005665
0.011215999999999999,-0.000816,0.000567
0.011248,-0.0009599999999999999,0.0005675
0.011647999999999999,-0.0007999999999999999,0.000568
0.01184,-0.000784,0.0005685
0.011871999999999999,-0.000928,0.000569
0.011999999999999999,-0.001008,0.0005695
0.012223999999999999,-0.000992,0.00057
0.01248,-0.000896,0.0005705
0.012624,-0.000864,0.000571
0.012672,-0.000848,0.0005715
0.01264,-0.0007999999999999999,0.000572
0.012464,-0.000768,0.0005725
0.012176,-0.0007520000000000001,0.000573
0.01184,-0.000768,0.0005735
0.011536,-0.000768,0.000574
0.011184,-0.000784,0.0005745
0.010816,-0.000816,0.000575
0.010496,-0.0008799999999999999,0.0005755
0.010176,-0.000992,0.000576
0.010015999999999999,-0.0009760000000000001,0.0005765
0.00984,-0.000912,0.000577
0.009568,-0.000928,0.0005775
0.009311999999999999,-0.0009760000000000001,0.000578
0.009087999999999999,-0.001056,0.0005785
0.009087999999999999,-0.0009599999999999999,0.000579
0.009167999999999999,-0.000848,0.0005795
0.009344,-0.000768,0.00058
0.009503999999999999,-0.0007520000000000001,0.0005805
0.009744,-0.0007999999999999999,0.000581
0.010256,-0.000624,0.0005815
0.01056,-0.000608,0.000582
0.01112,-0.000336,0.0005825
0.01128,-0.000368,0.000583
0.011295999999999999,-0.000512,0.0005835
0.011375999999999999,-0.000576,0.000584
0.011408,-0.0006399999999999999,0.0005845
0.011408,-0.0007199999999999999,0.000585
0.011424,-0.0007999999999999999,0.0005855
0.011359999999999999,-0.000912,0.000586
0.011231999999999999,-0.00104,0.0005865
0.011071999999999999,-0.001104,0.000587
0.010832,-0.00112,0.0005875
0.010447999999999999,-0.00112,0.000588
0.010032,-0.00112,0.0005885
0.00968,-0.001072,0.000589
0.009439999999999999,-0.0009599999999999999,0.0005895
0.009184,-0.000912,0.00059
0.008992,-0.000912,0.0005905
0.00912,-0.000688,0.000591
0.00928,-0.000544,0.0005915
0.009424,-0.000496,0.000592
0.009519999999999999,-0.000528,0.0005925
0.009712,-0.000512,0.000593
0.009984,-0.000416,0.0005935
0.010176,-0.000432,0.000594
0.010352,-0.000496,0.0005945
0.010464,-0.000656,0.000595
0.01056,-0.0007999999999999999,0.0005955
0.010784,-0.000848,0.000596
0.010896,-0.000944,0.0005965
0.011167999999999999,-0.0007999999999999999,0.000597
0.01104,-0.0009599999999999999,0.0005975
0.010863999999999999,-0.001088,0.000598
0.010688,-0.001088,0.0005985
0.010431999999999999,-0.00104,0.000599
0.010048,-0.00104,0.0005995
0.009744,-0.000944,0.0006
0.009439999999999999,-0.0008799999999999999,0.0006005
0.009056,-0.000864,0.000601
0.008832,-0.000848,0.0006015
0.008655999999999999,-0.0007999999999999999,0.000602
0.008496,-0.0007520000000000001,0.0006025
0.008352,-0.0007999999999999999,0.000603
0.008303999999999999,-0.0007999999999999999,0.0006035
0.008416,-0.000768,0.000604
0.008367999999999999,-0.000864,0.0006045
0.008287999999999998,-0.001008,0.000605
0.008511999999999999,-0.000928,0.0006055
0.008672,-0.0008799999999999999,0.000606
0.008688,-0.000944,0.0006065
0.008575999999999999,-0.001088,0.000607
0.008544,-0.001056,0.0006075
0.008575999999999999,-0.000928,0.000608
0.0084,-0.000896,0.0006085
0.008176,-0.0008799999999999999,0.000609
0.007728,-0.000944,0.0006095
0.007296,-0.000928,0.00061
0.006768000000000001,-0.000912,0.0006105
0.006272,-0.000816,0.000611
0.0058720000000000005,-0.000624,0.0006115
0.005072,-0.000736,0.000612
0.0043040000000000005,-0.000848,0.0006125
0.0036960000000000005,-0.000848,0.000613
0.003216,-0.0008320000000000001,0.0006135
0.002816,-0.0008320000000000001,0.000614
0.002464,-0.000816,0.0006145
0.0021279999999999997,-0.000816,0.000615
0.001792,-0.000848,0.0006155
0.001504,-0.000848,0.000616
0.001248,-0.0007999999999999999,0.0006165
0.0009599999999999999,-0.0007520000000000001,0.000617
0.0006720000000000001,-0.000736,0.0006175
0.00039999999999999996,-0.000704,0.000618
0.00022400000000000002,-0.0006399999999999999,0.0006185
-0.00011200000000000001,-0.000688,0.000619
-0.000464,-0.0007520000000000001,0.0006195
-0.000656,-0.000592,0.00062
-0.001056,-0.000544,0.0006205
-0.001568,-0.000624,0.000621
-0.002192,-0.000784,0.0006215
-0.002672,-0.0007520000000000001,0.000622
-0.00304,-0.0006399999999999999,0.0006225
-0.0035199999999999997,-0.000688,0.000623
-0.0038720000000000004,-0.000736,0.0006235
-0.004256,-0.000864,0.000624
-0.004336,-0.000816,0.0006245
-0.004448,-0.0007999999999999999,0.000625
-0.004336,-0.000608,0.0006255
-0.004128,-0.000368,0.000626
-0.004176,-0.000416,0.0006265
-0.004064,-0.00039999999999999996,0.000627
-0.003744,-0.000256,0.0006275
-0.00336,-0.00011200000000000001,0.000628
-0.002992,-3.200000000000002e-05,0.0006285
-0.002528,1.600000000000001e-05,0.000629
-0.002048,9.6e-05,0.0006295
-0.001552,0.000176,0.00063
-0.0012000000000000001,0.00019200000000000006,0.0006305
-0.000912,0.00022399999999999997,0.000631
-0.000688,0.00024000000000000003,0.0006315
-0.00056,0.000288,0.000632
-0.000544,0.00027200000000000005,0.0006325
-0.000512,0.000336,0.000633
-0.000608,0.00035200000000000005,0.0006335
-0.000592,0.000448,0.000634
-0.000384,0.000688,0.0006345
-0.000224,0.000864,0.000635
-9.6e-05,0.001008,0.0006355
-3.200000000000002e-05,0.00112,0.000636
0.00017599999999999994,0.001344,0.0006365
0.000512,0.001696,0.000637
0.0007520000000000001,0.0019359999999999998,0.0006375
0.000992,0.002128,0.000638
0.001104,0.002208,0.0006385
0.001424,0.002496,0.000639
0.001616,0.002656,0.0006395
0.0020800000000000003,0.00304,0.00064
0.0022240000000000003,0.003232,0.0006405
0.002208,0.003312,0.000641
0.00224,0.0035039999999999997,0.0006415
0.0021920000000000004,0.003696,0.000642
0.0020800000000000003,0.003920000000000001,0.0006425
0.0019839999999999997,0.004176,0.000643
0.001776,0.004432,0.0006435
0.001408,0.004688,0.000644
0.001104,0.005024000000000001,0.0006445
0.000864,0.005376000000000001,0.000645
0.000608,0.005664000000000001,0.0006455
0.000352,0.005936,0.000646
0.000192,0.006208,0.0006465
9.6e-05,0.006496,0.000647
-0.000192,0.0066240000000000005,0.0006475
-0.000432,0.006736000000000001,0.000648
-0.000384,0.007024000000000001,0.0006485
-0.000448,0.007152,0.000649
-0.00056,0.007152,0.0006495
-0.000608,0.0071200000000000005,0.00065
-0.000464,0.007136,0.0006505
-0.00024,0.007216,0.000651
-0.000144,0.007200000000000001,0.0006515
-4.800000000000003e-05,0.007168000000000001,0.000652
-0.000192,0.007024000000000001,0.0006525
-0.000272,0.006992000000000001,0.000653
-0.000288,0.006976,0.0006535
-0.000192,0.007008,0.000654
6.399999999999998e-05,0.007152,0.0006545
-0.00011200000000000001,0.0069440000000000005,0.000655
-0.000144,0.006848000000000001,0.0006555
-9.6e-05,0.006832,0.000656
-7.999999999999999e-05,0.006768000000000001,0.0006565
-4.800000000000003e-05,0.006688,0.000657
0.00014400000000000003,0.0066560000000000005,0.0006575
0.000272,0.006608,0.000658
0.00039999999999999996,0.006544,0.0006585
0.00056,0.006528000000000001,0.000659
0.0006399999999999999,0.006544,0.0006595
0.0006399999999999999,0.006592000000000001,0.00066
0.00047999999999999996,0.00664,0.0006605
0.00041600000000000003,0.006768000000000001,0.000661
0.000432,0.0069440000000000005,0.0006615
0.00036799999999999995,0.006992000000000001,0.000662
0.000384,0.007056000000000001,0.0006625
0.000576,0.007344000000000001,0.000663
0.000464,0.007488000000000001,0.0006635
9.6e-05,0.00752,0.000664
-0.000368,0.007504000000000001,0.0006645
-0.0006399999999999999,0.007616,0.000665
-0.0008320000000000001,0.007744,0.0006655
-0.001008,0.007712000000000001,0.000666
-0.001008,0.00768,0.0006665
-0.000928,0.007584,0.000667
-0.000656,0.0076,0.0006675
-0.000576,0.007488000000000001,0.000668
-0.00020800000000000001,0.007616,0.0006685
1.600000000000001e-05,0.007728,0.000669
4.7999999999999974e-05,0.007616,0.0006695
0.00015999999999999999,0.007584,0.00067
0.000432,0.00768,0.0006705
0.0006559999999999999,0.007808,0.000671
0.000704,0.007856,0.0006715
0.000688,0.007951999999999999,0.000672
0.000624,0.008032,0.0006725
0.000544,0.008128,0.000673
0.00044799999999999994,0.008159999999999999,0.0006735
0.000384,0.008159999999999999,0.000674
0.000384,0.008256,0.0006745
0.00025600000000000004,0.008288,0.000675
7.999999999999999e-05,0.00832,0.0006755
-6.399999999999998e-05,0.008383999999999999,0.000676
-0.00033600000000000004,0.00832,0.0006765
-0.000464,0.00832,0.000677
-0.000368,0.0084,0.0006775
-0.000192,0.008464,0.000678
-3.200000000000002e-05,0.008447999999999999,0.0006785
4.7999999999999974e-05,0.008367999999999999,0.000679
0.000272,0.008432,0.0006795
0.000464,0.008591999999999999,0.00068
0.000432,0.008608,0.0006805
0.00028799999999999995,0.00856,0.000681
0.00014400000000000003,0.00848,0.0006815
0.00025600000000000004,0.008608,0.000682
0.00014400000000000003,0.00848,0.0006825
0.000432,0.008655999999999999,0.000683
0.000528,0.008624,0.0006835
0.000512,0.008496,0.000684
0.000512,0.008447999999999999,0.0006845
0.00047999999999999996,0.008432,0.000685
0.00036799999999999995,0.008464,0.0006855
0.00020799999999999996,0.00856,0.000686
0.0,0.008591999999999999,0.0006865
-0.00017600000000000002,0.00864,0.000687
-0.00020800000000000001,0.008768,0.0006875
-6.399999999999998e-05,0.008879999999999999,0.000688
0.00014400000000000003,0.008928,0.0006885
0.000432,0.008976,0.000689
0.0006720000000000001,0.009056,0.0006895
0.000768,0.009104,0.00069
0.0006399999999999999,0.009104,0.0006905
0.000352,0.009008,0.000691
0.00028799999999999995,0.009056,0.0006915
0.00023999999999999998,0.009072,0.000692
0.00017599999999999994,0.008992,0.0006925
0.00011200000000000001,0.008848,0.000693
0.00014400000000000003,0.008735999999999999,0.0006935
0.00025600000000000004,0.008735999999999999,0.000694
0.00020799999999999996,0.00872,0.0006945
4.7999999999999974e-05,0.008688,0.000695
-0.00020800000000000001,0.008576,0.0006955
-0.000368,0.008511999999999999,0.000696
-0.00016,0.008624,0.0006965
-4.800000000000003e-05,0.008704,0.000697
0.000384,0.009023999999999999,0.0006975
0.00044799999999999994,0.00904,0.000698
0.00047999999999999996,0.00904,0.0006985
0.000576,0.009151999999999999,0.000699
0.00056,0.009264,0.0006995
0.000528,0.009295999999999999,0.0007
0.0006559999999999999,0.00936,0.0007005
0.0007999999999999999,0.009375999999999999,0.000701
0.0008320000000000001,0.009328,0.0007015
0.000768,0.009311999999999999,0.000702
0.000576,0.009264,0.0007025
0.00036799999999999995,0.0092,0.000703
0.00014400000000000003,0.009104,0.0007035
0.0,0.009056,0.000704
-4.800000000000003e-05,0.009056,0.0007045
-0.000192,0.008976,0.000705
-0.00025600000000000004,0.008896,0.0007055
-6.399999999999998e-05,0.008992,0.000706
0.00011200000000000001,0.009136,0.0007065
7.999999999999999e-05,0.00912,0.000707
-7.999999999999999e-05,0.009056,0.0007075
-6.399999999999998e-05,0.009104,0.000708
0.00017599999999999994,0.00928,0.0007085
0.000272,0.009375999999999999,0.000709
0.00025600000000000004,0.009424,0.0007095
0.000192,0.009375999999999999,0.00071
0.00031999999999999997,0.00936,0.0007105
0.000592,0.009424,0.000711
0.0007359999999999999,0.009424,0.0007115
0.000992,0.009663999999999999,0.000712
0.0006559999999999999,0.009504,0.0007125
0.000272,0.00936,0.000713
0.0,0.009344,0.0007135
-0.00017600000000000002,0.009344,0.000714
-0.00032,0.009328,0.0007145
-0.00032,0.009344,0.000715
-0.00012800000000000002,0.009375999999999999,0.0007155
-1.600000000000001e-05,0.009344,0.000716
1.600000000000001e-05,0.009311999999999999,0.0007165
-4.800000000000003e-05,0.00936,0.000717
-0.00017600000000000002,0.009424,0.0007175
-0.000304,0.009439999999999999,0.000718
-0.00033600000000000004,0.009439999999999999,0.0007185
-0.00017600000000000002,0.009488,0.000719
-3.200000000000002e-05,0.009455999999999999,0.0007195
1.600000000000001e-05,0.009375999999999999,0.00072
0.000272,0.009504,0.0007205
0.000384,0.009663999999999999,0.000721
0.00031999999999999997,0.009663999999999999,0.0007215
0.00015999999999999999,0.009583999999999999,0.000722
3.1999999999999965e-05,0.009568,0.0007225
7.999999999999999e-05,0.009744,0.000723
1.600000000000001e-05,0.009792,0.0007235
-7.999999999999999e-05,0.009792,0.000724
-0.00024,0.009663999999999999,0.0007245
-0.00033600000000000004,0.0096,0.000725
-0.000352,0.009616,0.0007255
-0.000464,0.0096,0.000726
-0.00016,0.009888,0.0007265
-0.000192,0.009807999999999999,0.000727
-0.00024,0.00968,0.0007275
-0.000224,0.009663999999999999,0.000728
-0.000192,0.009696,0.0007285
-0.00017600000000000002,0.009744,0.000729
-0.00012800000000000002,0.009807999999999999,0.0007295
-0.00011200000000000001,0.00984,0.00073
-0.00016,0.00984,0.0007305
-0.00020800000000000001,0.009824,0.000731
-0.00020800000000000001,0.009807999999999999,0.0007315
-7.999999999999999e-05,0.009856,0.000732
-4.800000000000003e-05,0.009856,0.0007325
-4.800000000000003e-05,0.009824,0.000733
4.7999999999999974e-05,0.009807999999999999,0.0007335
9.6e-05,0.009696,0.000734
0.0,0.009519999999999999,0.0007345
0.00012799999999999997,0.009536,0.000735
0.00015999999999999999,0.009552,0.0007355
0.00015999999999999999,0.009455999999999999,0.000736
0.00012799999999999997,0.009248,0.0007365
0.00022400000000000002,0.00912,0.000737
0.000432,0.009184,0.0007375
0.000544,0.009184,0.000738
0.000544,0.009104,0.0007385
0.000352,0.008943999999999999,0.000739
0.000272,0.008879999999999999,0.0007395
0.00022400000000000002,0.008816,0.00074
0.00012799999999999997,0.008688,0.0007405
0.000272,0.008752,0.000741
0.00012799999999999997,0.008511999999999999,0.0007415
4.7999999999999974e-05,0.008239999999999999,0.000742
0.00011200000000000001,0.007968,0.0007425
0.00033600000000000004,0.007744,0.000743
0.000496,0.007488000000000001,0.0007435
0.000512,0.007232000000000001,0.000744
0.00044799999999999994,0.006976,0.0007445
0.00039999999999999996,0.006736000000000001,0.000745
0.000352,0.006512,0.0007455
0.00022400000000000002,0.006240000000000001,0.000746
0.00022400000000000002,0.006,0.0007465
0.00031999999999999997,0.005792,0.000747
0.000464,0.005600000000000001,0.0007475
0.000624,0.005392,0.000748
0.000544,0.0050880000000000005,0.0007485
0.000352,0.0048000000000000004,0.000749
0.00025600000000000004,0.0046240000000000005,0.0007495
7.999999999999999e-05,0.004352,0.00075
-3.200000000000002e-05,0.004048,0.0007505
-0.00012800000000000002,0.0036479999999999998,0.000751
-6.399999999999998e-05,0.003312,0.0007515
0.00012799999999999997,0.00304,0.000752
0.00022400000000000002,0.002704,0.0007525
0.00023999999999999998,0.002352,0.000753
3.1999999999999965e-05,0.0019039999999999999,0.0007535
1.600000000000001e-05,0.0016640000000000001,0.000754
3.1999999999999965e-05,0.001424,0.0007545
0.00015999999999999999,0.001296,0.000755
0.00031999999999999997,0.001248,0.0007555
0.00028799999999999995,0.000992,0.000756
0.00039999999999999996,0.000848,0.0007565
0.000464,0.0007519999999999998,0.000757
0.00047999999999999996,0.000704,0.0007575
0.000576,0.000704,0.000758
0.000608,0.0006559999999999999,0.0007585
0.00056,0.0006399999999999999,0.000759
0.000432,0.0006399999999999999,0.0007595
0.00036799999999999995,0.0006719999999999999,0.00076
0.000304,0.0007199999999999999,0.0007605
0.00023999999999999998,0.0007519999999999998,0.000761
0.00023999999999999998,0.0008159999999999999,0.0007615
0.00028799999999999995,0.0008959999999999999,0.000762
0.00036799999999999995,0.000992,0.0007625
0.00023999999999999998,0.000992,0.000763
0.00017599999999999994,0.001072,0.0007635
0.000384,0.0013599999999999999,0.000764
0.000464,0.00152,0.0007645
0.00044799999999999994,0.0015999999999999999,0.000765
0.00039999999999999996,0.0016480000000000002,0.0007655
0.000512,0.0017759999999999998,0.000766
0.000624,0.0019359999999999998,0.0007665
0.0006399999999999999,0.001984,0.000767
0.0006559999999999999,0.002048,0.0007675
0.00044799999999999994,0.001968,0.000768
0.000352,0.001984,0.0007685
0.00015999999999999999,0.001968,0.000769
0.00025600000000000004,0.00208,0.0007695
0.000352,0.002144,0.00077
0.00017599999999999994,0.0019199999999999998,0.0007705
0.00015999999999999999,0.00184,0.000771
0.00020799999999999996,0.0017759999999999998,0.0007715
0.00017599999999999994,0.001712,0.000772
0.00015999999999999999,0.0016640000000000001,0.0007725
0.00012799999999999997,0.0016159999999999998,0.000773
6.399999999999998e-05,0.001552,0.0007735
0.00012799999999999997,0.001488,0.000774
0.00028799999999999995,0.0014399999999999999,0.0007745
0.000496,0.0014399999999999999,0.000775
0.0006720000000000001,0.001376,0.0007755
0.000688,0.0012799999999999999,0.000776
0.0006559999999999999,0.001248,0.0007765
0.000528,0.001232,0.000777
0.00023999999999999998,0.001104,0.0007775
0.00012799999999999997,0.00104,0.000778
0.000272,0.001152,0.0007785
0.00028799999999999995,0.001152,0.000779
0.000192,0.00104,0.0007795
9.6e-05,0.000944,0.00078
0.00022400000000000002,0.000992,0.0007805
0.000352,0.001088,0.000781
0.00028799999999999995,0.001072,0.0007815
0.00023999999999999998,0.00104,0.000782
0.00012799999999999997,0.0009599999999999999,0.0007825
0.00012799999999999997,0.0010559999999999999,0.000783
-7.999999999999999e-05,0.001008,0.0007835
9.6e-05,0.0012799999999999999,0.000784
0.00012799999999999997,0.0013599999999999999,0.0007845
6.399999999999998e-05,0.001264,0.000785
7.999999999999999e-05,0.001264,0.0007855
0.00022400000000000002,0.001312,0.000786
0.000384,0.001392,0.0007865
0.00039999999999999996,0.001456,0.000787
0.000272,0.001504,0.0007875
0.00014400000000000003,0.001536,0.000788
9.6e-05,0.001568,0.0007885
0.00015999999999999999,0.001584,0.000789
0.000272,0.001568,0.0007895
0.00039999999999999996,0.001568,0.00079
0.000496,0.001536,0.0007905
0.000544,0.001504,0.000791
0.000512,0.001456,0.0007915
0.00028799999999999995,0.001312,0.000792
0.00023999999999999998,0.001344,0.0007925
0.000192,0.0013599999999999999,0.000793
0.00011200000000000001,0.001248,0.0007935
1.600000000000001e-05,0.0011359999999999999,0.000794
0.0,0.001008,0.0007945
0.00022400000000000002,0.00104,0.000795
0.00036799999999999995,0.001024,0.0007955
0.000352,0.001008,0.000796
0.00015999999999999999,0.0008959999999999999,0.0007965
-1.600000000000001e-05,0.0008320000000000001,0.000797
0.0,0.000912,0.0007975
0.0,0.001008,0.000798
0.000272,0.001248,0.0007985
0.00020799999999999996,0.001232,0.000799
0.00022400000000000002,0.0012159999999999999,0.0007995
0.00033600000000000004,0.001296,0.0008
0.00033600000000000004,0.0013599999999999999,0.0008005
0.00033600000000000004,0.001456,0.000801
0.000304,0.00152,0.0008015
0.00028799999999999995,0.001568,0.000802
0.00017599999999999994,0.001536,0.0008025
0.00017599999999999994,0.001536,0.000803
0.00020799999999999996,0.001536,0.0008035
0.00020799999999999996,0.001504,0.000804
0.00014400000000000003,0.001392,0.0008045
0.00014400000000000003,0.001344,0.000805
0.00017599999999999994,0.001248,0.0008055
4.7999999999999974e-05,0.00104,0.000806
0.00011200000000000001,0.001008,0.0008065
0.00022400000000000002,0.00104,0.000807
0.00022400000000000002,0.0009599999999999999,0.0008075
7.999999999999999e-05,0.0007999999999999999,0.000808
7.999999999999999e-05,0.0007199999999999999,0.0008085
0.000304,0.000848,0.000809
0.00036799999999999995,0.000928,0.0008095
0.000272,0.000944,0.00081
0.00014400000000000003,0.0009759999999999999,0.0008105
1.600000000000001e-05,0.000992,0.000811
3.1999999999999965e-05,0.00112,0.0008115
-7.999999999999999e-05,0.0011359999999999999,0.000812
0.00025600000000000004,0.0014399999999999999,0.0008125
0.00022400000000000002,0.0014399999999999999,0.000813
4.7999999999999974e-05,0.001344,0.0008135
0.0,0.001328,0.000814
0.00011200000000000001,0.0013599999999999999,0.0008145
0.00025600000000000004,0.0013599999999999999,0.000815
0.00036799999999999995,0.001344,0.0008155
0.000384,0.001296,0.000816
0.000384,0.001248,0.0008165
0.00039999999999999996,0.001184,0.000817
0.000352,0.00112,0.0008175
0.000272,0.001104,0.000818
0.00023999999999999998,0.001088,0.0008185
0.00025600000000000004,0.0010559999999999999,0.000819
0.000352,0.0010559999999999999,0.0008195
0.000352,0.001024,0.00082
0.00028799999999999995,0.001008,0.0008205
0.00023999999999999998,0.001152,0.000821
6.399999999999998e-05,0.0012,0.0008215
-3.200000000000002e-05,0.0012159999999999999,0.000822
-0.00016,0.001152,0.0008225
-6.399999999999998e-05,0.001184,0.000823
0.00011200000000000001,0.0012799999999999999,0.0008235
0.00023999999999999998,0.001344,0.000824
0.00028799999999999995,0.001312,0.0008245
0.00015999999999999999,0.001168,0.000825
0.00025600000000000004,0.001184,0.0008255
0.00025600000000000004,0.0012,0.000826
0.000304,0.001296,0.0008265
0.00031999999999999997,0.0013599999999999999,0.000827
0.00014400000000000003,0.001232,0.0008275
0.00015999999999999999,0.001184,0.000828
0.00023999999999999998,0.001152,0.0008285
0.00033600000000000004,0.001168,0.000829
0.00039999999999999996,0.0012159999999999999,0.0008295
0.00041600000000000003,0.001248,0.00083
0.00028799999999999995,0.001232,0.0008305
0.00017599999999999994,0.001264,0.000831
0.00011200000000000001,0.001344,0.0008315
6.399999999999998e-05,0.001376,0.000832
7.999999999999999e-05,0.001328,0.0008325
0.00017599999999999994,0.001328,0.000833
0.00028799999999999995,0.001376,0.0008335
0.000304,0.0013599999999999999,0.000834
0.00022400000000000002,0.0012,0.0008345
0.000304,0.001184,0.000835
0.00039999999999999996,0.001264,0.0008355
0.000304,0.001152,0.000836
0.00023999999999999998,0.000992,0.0008365
0.00022400000000000002,0.000848,0.000837
0.00033600000000000004,0.000864,0.0008375
0.00036799999999999995,0.0008159999999999999,0.000838
0.000384,0.0007519999999999998,0.0008385
0.000496,0.0007199999999999999,0.000839
0.00044799999999999994,0.0005120000000000001,0.0008395
0.000528,0.0004,0.00084
0.00033600000000000004,0.00038399999999999996,0.0008405
0.000464,0.000768,0.000841
0.000352,0.0008159999999999999,0.0008415
0.00017599999999999994,0.000768,0.000842
0.00020799999999999996,0.0008159999999999999,0.0008425
0.00031999999999999997,0.0008959999999999999,0.000843
0.00033600000000000004,0.0008959999999999999,0.0008435
0.000352,0.0008799999999999999,0.000844
0.00028799999999999995,0.000848,0.0008445
0.00023999999999999998,0.000784,0.000845
0.00020799999999999996,0.000624,0.0008455
0.000272,0.0004959999999999999,0.000846
0.000352,0.000368,0.0008465
0.00036799999999999995,0.00016000000000000004,0.000847
0.00033600000000000004,-1.600000000000001e-05,0.0008475
0.000352,-0.00011200000000000001,0.000848
0.00028799999999999995,-0.000256,0.0008485
9.6e-05,-0.00048,0.000849
0.00015999999999999999,-0.00048,0.0008495
0.00025600000000000004,-0.000432,0.00085
0.00025600000000000004,-0.00048,0.0008505
0.00014400000000000003,-0.000608,0.000851
0.00012799999999999997,-0.000672,0.0008515
0.00023999999999999998,-0.000592,0.000852
0.000272,-0.00056,0.0008525
0.00022400000000000002,-0.000672,0.000853
1.600000000000001e-05,-0.0008799999999999999,0.0008535
-9.6e-05,-0.001024,0.000854
-7.999999999999999e-05,-0.001168,0.0008545
-7.999999999999999e-05,-0.001392,0.000855
0.00025600000000000004,-0.001424,0.0008555
0.00022400000000000002,-0.0018080000000000001,0.000856
0.00011200000000000001,-0.002224,0.0008565
1.600000000000001e-05,-0.00256,0.000857
1.600000000000001e-05,-0.002832,0.0008575
6.399999999999998e-05,-0.003088,0.000858
0.00014400000000000003,-0.00336,0.0008585
0.00022400000000000002,-0.0036320000000000002,0.000859
0.00028799999999999995,-0.00384,0.0008595
0.00031999999999999997,-0.004032,0.00086
0.000272,-0.0042239999999999995,0.0008605
0.00017599999999999994,-0.004384,0.000861
0.00012799999999999997,-0.004528,0.0008615
0.00011200000000000001,-0.0046559999999999995,0.000862
0.00017599999999999994,-0.0048,0.0008625
0.00017599999999999994,-0.005024,0.000863
0.00015999999999999999,-0.005264,0.0008635
0.000352,-0.005344,0.000864
0.00031999999999999997,-0.005535999999999999,0.0008645
0.000192,-0.005808,0.000865
1.600000000000001e-05,-0.006096,0.0008655
-3.200000000000002e-05,-0.006336,0.000866
3.1999999999999965e-05,-0.006463999999999999,0.0008665
9.6e-05,-0.006656,0.000867
0.00023999999999999998,-0.0068,0.0008675
0.00017599999999999994,-0.007088,0.000868
0.000192,-0.007215999999999999,0.0008685
0.000192,-0.007247999999999999,0.000869
0.000272,-0.007136,0.0008695
0.00028799999999999995,-0.006992,0.00087
4.7999999999999974e-05,-0.007088,0.0008705
-4.800000000000003e-05,-0.007056,0.000871
-1.600000000000001e-05,-0.006944,0.0008715
9.6e-05,-0.00688,0.000872
0.00025600000000000004,-0.006768,0.0008725
0.00044799999999999994,-0.006575999999999999,0.000873
0.00041600000000000003,-0.0065119999999999996,0.0008735
0.000272,-0.006463999999999999,0.000874
0.00015999999999999999,-0.006416,0.0008745
4.7999999999999974e-05,-0.006352,0.000875
-4.800000000000003e-05,-0.006336,0.0008755
-7.999999999999999e-05,-0.006384,0.000876
7.999999999999999e-05,-0.006384,0.0008765
0.00023999999999999998,-0.006384,0.000877
0.00014400000000000003,-0.0065439999999999995,0.0008775
0.00012799999999999997,-0.006624,0.000878
0.00028799999999999995,-0.006528,0.0008785
0.00025600000000000004,-0.006528,0.000879
4.7999999999999974e-05,-0.0066879999999999995,0.0008795
-0.00011200000000000001,-0.0068319999999999995,0.00088
1.600000000000001e-05,-0.006816,0.0008805
0.00022400000000000002,-0.0068,0.000881
0.000304,-0.006944,0.0008815
0.00044799999999999994,-0.007056,0.000882
0.000384,-0.00728,0.0008825
0.00041600000000000003,-0.007344,0.000883
0.00017599999999999994,-0.007535999999999999,0.0008835
0.000272,-0.007424,0.000884
0.00015999999999999999,-0.0074719999999999995,0.0008845
-9.6e-05,-0.007728,0.000885
-0.00016,-0.007872,0.0008855
-0.00011200000000000001,-0.007904,0.000886
-1.600000000000001e-05,-0.00792,0.0008865
7.999999999999999e-05,-0.007936,0.000887
0.00012799999999999997,-0.007904,0.0008875
0.00011200000000000001,-0.007824,0.000888
3.1999999999999965e-05,-0.0077599999999999995,0.0008885
-1.600000000000001e-05,-0.007679999999999999,0.000889
1.600000000000001e-05,-0.007552,0.0008895
6.399999999999998e-05,-0.0074399999999999996,0.00089
0.00012799999999999997,-0.007376,0.0008905
0.00025600000000000004,-0.007312,0.000891
0.00039999999999999996,-0.007264,0.0008915
0.000352,-0.007359999999999999,0.000892
0.000304,-0.007376,0.0008925
0.00036799999999999995,-0.007312,0.000893
0.000352,-0.007408,0.0008935
0.00015999999999999999,-0.0076,0.000894
-6.399999999999998e-05,-0.007808,0.0008945
-4.800000000000003e-05,-0.007856,0.000895
6.399999999999998e-05,-0.007872,0.0008955
9.6e-05,-0.007984,0.000896
0.00012799999999999997,-0.008128,0.0008965
4.7999999999999974e-05,-0.008304,0.000897
0.00014400000000000003,-0.00824,0.0008975
1.600000000000001e-05,-0.008304,0.000898
0.000272,-0.008032,0.0008985
0.00022400000000000002,-0.008064,0.000899
0.00014400000000000003,-0.008144,0.0008995
0.00015999999999999999,-0.008176,0.0009
0.00017599999999999994,-0.008144,0.0009005
0.00022400000000000002,-0.008128,0.000901
0.00025600000000000004,-0.008128,0.0009015
0.000304,-0.008144,0.000902
0.00020799999999999996,-0.008224,0.0009025
7.999999999999999e-05,-0.008272,0.000903
3.1999999999999965e-05,-0.008304,0.0009035
3.1999999999999965e-05,-0.008352,0.000904
4.7999999999999974e-05,-0.008416,0.0009045
0.00015999999999999999,-0.008416,0.000905
0.00023999999999999998,-0.008368,0.0009055
0.00015999999999999999,-0.008416,0.000906
0.0,-0.008496,0.0009065
0.00012799999999999997,-0.008320000000000001,0.000907
0.00017599999999999994,-0.008208,0.0009075
7.999999999999999e-05,-0.00824,0.000908
-3.200000000000002e-05,-0.008320000000000001,0.0009085
1.600000000000001e-05,-0.008320000000000001,0.000909
0.00012799999999999997,-0.008224,0.0009095
0.00015999999999999999,-0.00824,0.00091
0.00014400000000000003,-0.008320000000000001,0.0009105
1.600000000000001e-05,-0.00848,0.000911
-0.00011200000000000001,-0.008624,0.0009115
-0.000192,-0.008704,0.000912
-0.00025600000000000004,-0.008768,0.0009125
-4.800000000000003e-05,-0.00864,0.000913
-6.399999999999998e-05,-0.008864,0.0009135
-1.600000000000001e-05,-0.009024,0.000914
9.6e-05,-0.009008,0.0009145
9.6e-05,-0.008944,0.000915
-6.399999999999998e-05,-0.008928,0.0009155
-0.00020800000000000001,-0.008848,0.000916
-0.000224,-0.00872,0.0009165
-0.00024,-0.008608000000000001,0.000917
-0.000224,-0.008528,0.0009175
-0.00020800000000000001,-0.008448,0.000918
-0.00020800000000000001,-0.008368,0.0009185
-0.00033600000000000004,-0.008384,0.000919
-0.000432,-0.008400000000000001,0.0009195
-0.000384,-0.008368,0.00092
-0.00048,-0.008528,0.0009205
-0.000576,-0.008656,0.000921
-0.000576,-0.00864,0.0009215
-0.000608,-0.00872,0.000922
-0.000688,-0.00888,0.0009225
-0.000784,-0.009072,0.000923
-0.000736,-0.00912,0.0009235
-0.000736,-0.00912,0.000924
-0.000896,-0.009184000000000001,0.0009245
-0.0010400000000000001,-0.009216,0.000925
-0.001328,-0.00936,0.0009255
-0.001392,-0.009248000000000001,0.000926
-0.0016640000000000001,-0.009248000000000001,0.0009265
-0.001632,-0.008976000000000001,0.000927
-0.001792,-0.008896000000000001,0.0009275
-0.002064,-0.008960000000000001,0.000928
-0.00224,-0.008976000000000001,0.0009285
-0.0024000000000000002,-0.008960000000000001,0.000929
-0.0026560000000000004,-0.008960000000000001,0.0009295
-0.0029119999999999997,-0.008944,0.00093
-0.0031999999999999997,-0.008960000000000001,0.0009305
-0.0034879999999999998,-0.009040000000000001,0.000931
-0.003744,-0.009104000000000001,0.0009315
-0.003952,-0.009152,0.000932
-0.00424,-0.009232,0.0009325
-0.00464,-0.009296,0.000933
-0.005072,-0.009312,0.0009335
-0.005488,-0.00928,0.000934
-0.00624,-0.009392000000000001,0.0009345
-0.00688,-0.009472000000000001,0.000935
-0.0073279999999999994,-0.009328000000000001,0.0009355
-0.00792,-0.00928,0.000936
-0.008624000000000001,-0.009344,0.0009365
-0.009328000000000001,-0.009456,0.000937
-0.009776,-0.009392000000000001,0.0009375
-0.010288,-0.009296,0.000938
-0.010976000000000001,-0.009328000000000001,0.0009385
-0.011664,-0.009344,0.000939
-0.012400000000000001,-0.00944,0.0009395
-0.013008,-0.009456,0.00094
-0.013760000000000001,-0.009504,0.0009405
-0.014048000000000001,-0.009296,0.000941
-0.014464000000000001,-0.0092,0.0009415
-0.015088,-0.009344,0.000942
-0.015600000000000001,-0.009408,0.0009425
-0.016,-0.009344,0.000943
-0.016432,-0.009296,0.0009435
-0.016784,-0.009248000000000001,0.000944
-0.016975999999999998,-0.009216,0.0009445
-0.017023999999999997,-0.009184000000000001,0.000945
-0.017072,-0.009184000000000001,0.0009455
-0.017136,-0.009216,0.000946
-0.01712,-0.009232,0.0009465
-0.017072,-0.009232,0.000947
-0.01696,-0.009248000000000001,0.0009475
-0.016672,-0.009248000000000001,0.000948
-0.016384,-0.009344,0.0009485
-0.015952,-0.009344,0.000949
-0.015408,-0.0092,0.0009495
-0.015008,-0.009152,0.00095
-0.014592,-0.00912,0.0009505
-0.01416,-0.009136,0.000951
-0.013536000000000001,-0.009024,0.0009515
-0.012912,-0.008832000000000001,0.000952
-0.012400000000000001,-0.00872,0.0009525
-0.011936,-0.008592,0.000953
-0.011712,-0.00864,0.0009535
-0.011328000000000001,-0.008528,0.000954
-0.011024,-0.008448,0.0009545
-0.010384000000000001,-0.008128,0.000955
-0.010016,-0.007984,0.0009555
-0.009888000000000001,-0.008032,0.000956
-0.009696000000000001,-0.007984,0.0009565
-0.009504,-0.007872,0.000957
-0.009472000000000001,-0.007776,0.0009575
-0.009456,-0.007647999999999999,0.000958
-0.009472000000000001,-0.007488,0.0009585
-0.00952,-0.0073279999999999994,0.000959
-0.009712,-0.0072,0.0009595
-0.009872,-0.0070079999999999995,0.00096
-0.009952,-0.006736,0.0009605
-0.01016,-0.00648,0.000961
-0.010464000000000001,-0.0062239999999999995,0.0009615
-0.010784,-0.0059039999999999995,0.000962
-0.01128,-0.005696,0.0009625
-0.011648,-0.005391999999999999,0.000963
-0.012016,-0.005088,0.0009635
-0.012400000000000001,-0.004783999999999999,0.000964
-0.012848,-0.004607999999999999,0.0009645
-0.013344,-0.00448,0.000965
-0.013664,-0.004208,0.0009655
-0.013808,-0.003888,0.000966
-0.013952,-0.00368,0.0009665
-0.014048000000000001,-0.00352,0.000967
-0.014176000000000001,-0.00344,0.0009675
-0.013968000000000001,-0.003136,0.000968
-0.013936,-0.002928,0.0009685
-0.01352,-0.00248,0.000969
-0.013312000000000001,-0.0022559999999999998,0.0009695
-0.013104000000000001,-0.0020959999999999998,0.00097
-0.012688000000000001,-0.00184,0.0009705
-0.012192000000000001,-0.001552,0.000971
-0.011728,-0.001296,0.0009715
-0.01128,-0.001024,0.000972
-0.010912,-0.0008320000000000001,0.0009725
-0.01064,-0.000672,0.000973
-0.010336000000000001,-0.000544,0.0009735
-0.010048000000000001,-0.000416,0.000974
-0.009776,-0.000336,0.0009745
-0.009568,-0.000304,0.000975
-0.009296,-0.000256,0.0009755
-0.009152,-0.000256,0.000976
-0.009216,-0.000384,0.0009765
-0.009232,-0.000368,0.000977
-0.009184000000000001,-0.000304,0.0009775
-0.00928,-0.00031999999999999997,0.000978
-0.009568,-0.000448,0.0009785
-0.009984,-0.000608,0.000979
-0.01016,-0.000528,0.0009795
-0.010464000000000001,-0.000496,0.00098
-0.011040000000000001,-0.000592,0.0009805
-0.011616000000000001,-0.0007520000000000001,0.000981
-0.01216,-0.000912,0.0009815
-0.012480000000000002,-0.000944,0.000982
-0.01288,-0.001104,0.0009825
-0.01288,-0.001024,0.000983
-0.013088,-0.001216,0.0009835
-0.01328,-0.00144,0.000984
-0.01336,-0.001632,0.0009845
-0.013264000000000001,-0.001712,0.000985
-0.013024,-0.00176,0.0009855
-0.012736,-0.0018080000000000001,0.000986
-0.012400000000000001,-0.001872,0.0009865
-0.011888000000000001,-0.00184,0.000987
-0.01136,-0.001776,0.0009875
-0.010912,-0.001712,0.000988
-0.010480000000000001,-0.001648,0.0009885
-0.010112000000000001,-0.0015040000000000001,0.000989
-0.009776,-0.001328,0.0009895
-0.009664,-0.001264,0.00099
-0.009600000000000001,-0.001264,0.0009905
-0.009264000000000001,-0.001072,0.000991
-0.008992,-0.000912,0.0009915
-0.00888,-0.000864,0.000992
-0.008864,-0.000912,0.0009925
-0.008832000000000001,-0.000928,0.000993
-0.008736,-0.0007999999999999999,0.0009935
-0.008864,-0.000736,0.000994
-0.009104000000000001,-0.0007520000000000001,0.0009945
-0.009424,-0.000768,0.000995
-0.009792,-0.000816,0.0009955
-0.01016,-0.000768,0.000996
-0.010544000000000001,-0.000704,0.0009965
-0.010656,-0.000464,0.000997
-0.011104000000000001,-0.000512,0.0009975
-0.011536000000000001,-0.000608,0.000998
-0.011792,-0.0006399999999999999,0.0009985
-0.01192,-0.000624,0.000999
